LabVIEW Measurement	
Writer_Version	2
Reader_Version	2
Separator	Tab
Multi_Headings	Yes
X_Columns	No
Time_Pref	Absolute
Operator	brodiej
Date	2014/12/19
Time	05:18:15.542484
***End_of_Header***	
	
Channels	2		
Samples	6400	6400	
Date	2014/12/10	2014/12/10	
Time	17:02:58	17:02:58	
Y_Unit_Label	Acceleration (g)	Acceleration (g)	
X_Dimension	Time (s)	Time (s)	
X0	5:02:58.640183768749 PM 12/10/2014	5:02:58.640183768749 PM 12/10/2014	
Delta_X	0.000605	0.000605	
***End_of_Header***			
X_Value	sj pick 4 - Acceleration - Ref	sj pick 4 - Acceleration - Meas	Comment
0.000000	0.000426	0.001208
0.000605	-0.001374	0.002122
0.001211	0.000145	-0.000763
0.001816	-0.000952	0.000689
0.002422	-0.000330	2.691543E-5
0.003027	-0.000412	-0.001483
0.003633	0.000216	0.000137
0.004238	-3.417375E-5	-0.000413
0.004844	0.000781	-0.000568
0.005449	0.000910	0.000125
0.006055	0.000831	-0.000866
0.006660	0.001536	0.000110
0.007266	0.000652	0.000770
0.007871	0.001413	0.001196
0.008477	0.000863	0.001265
0.009082	0.001378	0.002253
0.009687	0.000850	0.001522
0.010293	0.001045	-8.578195E-5
0.010898	0.000799	0.000178
0.011504	0.001091	0.000109
0.012109	0.000721	-0.000317
0.012715	0.000783	-0.001740
0.013320	0.000723	7.759943E-5
0.013926	-3.041832E-5	-0.002231
0.014531	-0.000412	-0.000470
0.015137	0.000776	0.000719
0.015742	4.594198E-5	0.000404
0.016348	-0.001101	-0.000609
0.016953	-8.236837E-5	0.000296
0.017559	-0.000432	0.002117
0.018164	-0.000730	0.000672
0.018770	-0.000683	0.001119
0.019375	-0.000212	0.001214
0.019980	-0.000318	0.001927
0.020586	8.474804E-5	-0.001045
0.021191	0.000127	-0.001999
0.021797	0.000527	-0.000266
0.022402	0.000269	-0.000314
0.023008	0.000719	-0.001111
0.023613	0.000861	-0.002320
0.024219	0.000398	-0.000284
0.024824	0.001196	-0.000757
0.025430	0.001151	-0.000116
0.026035	0.001005	0.000435
0.026641	0.001352	0.000509
0.027246	0.000275	0.000729
0.027852	0.000659	0.002662
0.028457	0.000294	0.000769
0.029062	-0.000275	0.001534
0.029668	-1.539662E-5	0.001940
0.030273	0.000475	0.002509
0.030879	-0.001017	0.000919
0.031484	0.000715	6.746263E-5
0.032090	-4.168460E-5	0.001831
0.032695	-0.000218	-0.000234
0.033301	0.001194	-0.001743
0.033906	0.001122	-0.001042
0.034512	0.000403	-0.002025
0.035117	0.001347	0.000456
0.035723	0.001158	7.834390E-6
0.036328	0.001097	-0.000782
0.036934	0.000791	0.001980
0.037539	-0.000211	0.002456
0.038145	-0.000599	0.002862
0.038750	-0.001401	0.000831
0.039355	-0.001479	0.001159
0.039961	-0.001656	0.002952
0.040566	-0.001560	0.000434
0.041172	-0.000481	-9.234106E-5
0.041777	-0.000384	-0.000896
0.042383	9.038118E-5	-0.001342
0.042988	0.000715	-0.000556
0.043594	0.001242	-0.002798
0.044199	0.001743	-0.001527
0.044805	0.001959	-0.001315
0.045410	0.001846	-0.001332
0.046016	0.001265	0.000423
0.046621	0.001122	0.001799
0.047227	-2.666290E-5	0.001209
0.047832	-0.000545	0.002752
0.048438	-0.000375	0.001819
0.049043	-0.001477	0.001351
0.049648	-0.001493	0.002724
0.050254	-0.001360	0.001336
0.050859	-0.001380	0.001188
0.051465	-0.000338	0.000368
0.052070	-0.000649	0.000259
0.052676	0.000363	-0.000643
0.053281	0.000395	-0.000275
0.053887	0.000788	-0.001361
0.054492	0.000848	0.000585
0.055098	0.000223	0.001906
0.055703	0.000704	0.001058
0.056309	0.000344	0.003897
0.056914	-0.000316	0.002678
0.057520	0.000190	0.002589
0.058125	-0.000254	0.002633
0.058730	-0.000407	0.002340
0.059336	-2.916652E-5	0.002089
0.059941	-0.000525	0.000691
0.060547	0.000229	-0.000331
0.061152	0.000542	-0.000862
0.061758	0.000676	0.000327
0.062363	0.000102	-0.000772
0.062969	0.001136	-0.000890
0.063574	0.000574	-0.000773
0.064180	0.000200	0.000219
0.064785	-0.000285	0.001383
0.065391	-7.235390E-5	0.001686
0.065996	-0.000979	0.000799
0.066602	-0.000402	0.002092
0.067207	-0.000629	0.001568
0.067812	-0.001277	0.000515
0.068418	-0.000310	0.001466
0.069023	3.467571E-5	-0.000308
0.069629	0.000121	0.000293
0.070234	0.000907	-0.001591
0.070840	0.001304	-0.000547
0.071445	0.001284	-0.001021
0.072051	0.001422	-0.001785
0.072656	0.000873	-0.001353
0.073262	0.001151	-0.001491
0.073867	0.000221	0.001084
0.074473	0.000603	0.000386
0.075078	0.000310	-0.000806
0.075684	0.000756	2.393402E-5
0.076289	-0.000208	0.002729
0.076895	0.000741	0.000842
0.077500	-0.000119	0.000968
0.078105	-3.918098E-5	0.000315
0.078711	0.000691	-0.000572
0.079316	0.000199	0.000330
0.079922	0.000386	-0.000135
0.080527	0.001075	-0.002539
0.081133	0.000855	-0.001309
0.081738	0.001396	-0.001011
0.082344	0.001712	-0.000776
0.082949	0.001999	-0.001174
0.083555	0.002059	-0.000974
0.084160	0.001922	-0.000267
0.084766	0.001601	-0.000162
0.085371	0.001405	-0.000870
0.085977	0.000935	-0.000261
0.086582	0.000751	0.000670
0.087188	0.000725	-0.000780
0.087793	0.000354	-0.000148
0.088398	0.000306	-0.001358
0.089004	-6.734667E-5	-0.000672
0.089609	0.000104	2.512658E-5
0.090215	9.413661E-5	-0.002274
0.090820	0.000824	-0.002417
0.091426	0.000421	-0.001433
0.092031	0.000560	-0.000115
0.092637	0.001452	-0.001357
0.093242	0.000767	-0.001417
0.093848	0.000707	-0.000871
0.094453	0.001572	0.000218
0.095059	0.000979	0.000970
0.095664	0.000488	1.976004E-5
0.096270	0.001122	0.001533
0.096875	0.000361	0.001342
0.097480	0.000485	0.000419
0.098086	6.534501E-5	-0.000319
0.098691	0.000113	0.000525
0.099297	0.000194	-0.000749
0.099902	1.965401E-5	-0.000475
0.100508	-9.426055E-5	-0.000442
0.101113	-7.861295E-5	-0.001475
0.101719	-6.922438E-5	0.000371
0.102324	0.000656	-0.000926
0.102930	0.000596	-0.000452
0.103535	0.000316	0.001307
0.104141	0.000926	0.000396
0.104746	0.000543	0.001431
0.105352	0.000723	0.000770
0.105957	0.000454	0.001463
0.106563	5.908597E-5	0.003065
0.107168	-0.000208	0.001129
0.107773	-5.920992E-5	0.000122
0.108379	-0.000393	2.214517E-5
0.108984	-0.000192	-0.000203
0.109590	0.000115	-0.001048
0.110195	0.000311	-0.001841
0.110801	0.000843	-0.000925
0.111406	0.001246	-0.000637
0.112012	0.000999	-0.000742
0.112617	0.000522	-5.135646E-7
0.113223	0.001154	-0.000372
0.113828	0.000132	0.002200
0.114434	-0.000364	0.001720
0.115039	0.000256	0.001365
0.115645	-0.000843	0.003983
0.116250	-0.001275	0.002946
0.116855	-0.000890	0.000593
0.117461	-0.001227	0.002082
0.118066	-0.000691	0.001652
0.118672	-0.001034	0.001207
0.119277	-0.000615	-0.000206
0.119883	-0.000546	-0.000865
0.120488	-0.000241	-0.000238
0.121094	0.000115	0.000658
0.121699	0.000477	-0.000498
0.122305	0.000447	0.000382
0.122910	0.000918	0.001413
0.123516	0.000428	0.002029
0.124121	0.000188	0.001795
0.124727	-9.763486E-6	0.002194
0.125332	-0.000628	0.003695
0.125938	-0.000470	0.002417
0.126543	-0.001312	0.001398
0.127148	-0.001239	0.000446
0.127754	-0.000894	0.000832
0.128359	-0.000740	0.001858
0.128965	-0.000785	-0.001359
0.129570	0.000562	-0.001436
0.130176	0.000487	0.001323
0.130781	0.001108	-0.001181
0.131387	0.000482	0.000835
0.131992	0.001390	-0.000298
0.132598	0.000696	0.000600
0.133203	0.001037	0.002489
0.133809	0.001233	0.000628
0.134414	0.000252	0.001336
0.135020	0.000650	0.002065
0.135625	5.846007E-5	0.000811
0.136230	-0.000450	0.000655
0.136836	-0.000405	-9.532247E-5
0.137441	-0.000375	0.000471
0.138047	-0.001255	0.001056
0.138652	-6.484305E-5	-0.000894
0.139258	-0.000367	-0.000550
0.139863	-0.000884	0.000499
0.140469	0.000283	-0.000213
0.141074	9.413661E-5	-3.450166E-5
0.141680	-0.000789	-0.001356
0.142285	0.000402	0.000510
0.142891	3.279800E-5	0.001633
0.143496	-0.000271	-0.000671
0.144102	0.000472	0.001645
0.144707	0.000400	0.000692
0.145313	-9.238284E-5	0.000524
0.145918	0.000316	0.000510
0.146523	0.000871	-0.001217
0.147129	0.000669	0.000230
0.147734	0.000808	4.361134E-5
0.148340	0.001494	-0.000741
0.148945	0.001357	-0.000831
0.149551	0.001212	-0.000906
0.150156	0.001164	-0.000716
0.150762	0.001272	-0.001650
0.151367	0.000647	-0.002154
0.151973	0.000374	-0.000827
0.152578	0.000785	0.000707
0.153184	0.000457	-0.000331
0.153789	0.000204	-8.935965E-5
0.154395	0.000553	0.000717
0.155000	0.000312	0.000292
0.155605	0.000450	-0.000359
0.156211	0.000491	-0.000519
0.156816	0.000632	-0.000383
0.157422	0.000362	0.000201
0.158027	0.000359	-0.000830
0.158633	0.000873	-0.001605
0.159238	0.000718	-0.000829
0.159844	0.000654	-0.001076
0.160449	0.001300	-0.001773
0.161055	0.001144	-0.000730
0.161660	0.000310	-0.000303
0.162266	0.001362	-0.000102
0.162871	0.000271	0.000462
0.163477	0.000422	0.000973
0.164082	0.000178	0.001772
0.164687	0.000376	0.000801
0.165293	0.000122	0.000511
0.165898	0.000116	0.000285
0.166504	0.000671	0.001407
0.167109	0.000611	7.521430E-5
0.167715	0.000537	-0.000788
0.168320	0.001661	-0.001319
0.168926	0.001323	-9.949645E-5
0.169531	0.001358	-0.001578
0.170137	0.001851	-0.000197
0.170742	0.001375	-0.001252
0.171348	0.001460	0.000748
0.171953	0.000506	0.001287
0.172559	0.000636	0.000969
0.173164	-0.000161	0.001599
0.173770	-1.915205E-5	0.001276
0.174375	-0.000276	0.001194
0.174980	-0.000279	0.000383
0.175586	1.652449E-5	0.000599
0.176191	6.597092E-5	-0.001238
0.176797	0.000344	-0.000167
0.177402	0.000197	-0.001929
0.178008	0.000547	-0.001276
0.178613	0.000264	-0.001937
0.179219	0.000631	-0.001015
0.179824	0.000614	-0.000133
0.180430	0.000776	-0.000193
0.181035	0.000760	0.001667
0.181641	0.000677	0.001747
0.182246	0.000662	0.002740
0.182852	0.000307	0.003256
0.183457	0.000739	0.002193
0.184062	0.000224	0.001407
0.184668	-0.000144	0.001888
0.185273	0.000149	0.000425
0.185879	-0.000224	1.797119E-5
0.186484	-0.000517	-0.001553
0.187090	0.000110	-0.000320
0.187695	-0.000555	-0.000498
0.188301	-0.000255	-0.001445
0.188906	-0.000519	0.000631
0.189512	-7.423162E-5	-9.949645E-5
0.190117	-0.000791	0.000597
0.190723	-0.000383	0.002382
0.191328	-0.000706	0.002115
0.191934	-0.000580	0.002123
0.192539	-0.000489	0.002265
0.193145	-0.000302	0.001677
0.193750	0.000137	0.001822
0.194355	-0.000253	0.000602
0.194961	0.000661	-0.000103
0.195566	0.000613	-0.001082
0.196172	0.000560	-0.000565
0.196777	0.001010	-0.001034
0.197383	0.000972	-0.002240
0.197988	0.000749	-0.001160
0.198594	0.001009	-0.001401
0.199199	0.000826	-0.000211
0.199805	-0.000109	0.000263
0.200410	0.000309	0.000323
0.201016	-0.000618	0.001691
0.201621	-0.000844	0.002032
0.202227	-0.000766	0.000710
0.202832	-0.000992	0.003005
0.203437	-0.001110	0.001764
0.204043	-0.000487	0.002252
0.204648	-0.000909	0.001684
0.205254	0.000184	0.000482
0.205859	0.000369	0.001243
0.206465	0.000342	0.001310
0.207070	0.001323	0.000136
0.207676	0.000746	-0.000398
0.208281	0.001353	-7.445259E-5
0.208887	0.001599	0.000186
0.209492	0.000805	5.374814E-5
0.210098	0.001421	-0.000905
0.210703	0.001107	0.000860
0.211309	0.000505	0.001001
0.211914	0.000491	0.001197
0.212520	0.000182	0.000720
0.213125	-0.000706	0.001608
0.213730	-0.000770	0.001478
0.214336	-0.001240	0.001546
0.214941	-0.001225	0.000762
0.215547	-0.001347	-0.000104
0.216152	-0.000945	0.001931
0.216758	-0.000857	3.228197E-5
0.217363	-0.000490	-0.000554
0.217969	-0.000569	-0.000662
0.218574	-0.000552	0.000268
0.219180	-0.000566	0.000415
0.219785	-0.000507	-0.000493
0.220391	0.000220	-0.001129
0.220996	0.000244	0.000768
0.221602	0.000602	0.000791
0.222207	0.000663	0.000296
0.222812	0.000520	0.000157
0.223418	0.000467	0.001162
0.224023	0.000257	0.000924
0.224629	-4.130349E-6	-0.000445
0.225234	0.000109	0.000694
0.225840	0.000517	0.000681
0.226445	0.000164	0.000292
0.227051	0.000740	-0.000860
0.227656	0.000940	-0.001100
0.228262	0.000680	-0.000967
0.228867	0.001057	2.512658E-5
0.229473	0.000649	-0.000540
0.230078	0.000661	0.000759
0.230684	-7.673523E-5	0.001785
0.231289	-6.233944E-5	0.001302
0.231895	-0.000186	0.001117
0.232500	-0.000428	0.000618
0.233105	0.000125	0.000953
0.233711	0.000139	0.000686
0.234316	0.000191	0.000314
0.234922	0.000727	-0.001236
0.235527	0.000666	-0.000931
0.236133	0.000487	-0.000758
0.236738	0.000291	-0.001107
0.237344	0.000281	-0.000866
0.237949	0.000160	-5.358270E-5
0.238555	0.000137	0.000622
0.239160	0.000649	0.001865
0.239766	0.000564	0.000719
0.240371	0.000657	0.001919
0.240977	0.000539	0.002067
0.241582	0.000557	0.001387
0.242187	0.000574	-0.000126
0.242793	0.001065	1.320093E-5
0.243398	0.001011	-0.000339
0.244004	0.001378	-0.000947
0.244609	0.001653	-0.001358
0.245215	0.001491	-0.001729
0.245820	0.001816	-0.001455
0.246426	0.001403	-0.000649
0.247031	0.001236	-0.000758
0.247637	0.000396	-0.000694
0.248242	0.000271	0.001207
0.248848	-0.000343	0.001624
0.249453	-0.000591	0.000870
0.250059	-0.000432	0.001185
0.250664	-0.000587	0.001246
0.251270	-0.000686	0.000701
0.251875	-0.000179	-0.000727
0.252480	0.000140	-0.000642
0.253086	0.000140	-0.001077
0.253691	0.001025	-0.000777
0.254297	0.000393	-0.001683
0.254902	0.001336	-0.002474
0.255508	0.001304	-0.001144
0.256113	0.001701	-0.000618
0.256719	0.002228	-0.000785
0.257324	0.002553	-0.000678
0.257930	0.002250	0.000352
0.258535	0.002428	-0.000114
0.259141	0.001758	0.000330
0.259746	0.001297	-0.000599
0.260352	0.000774	-0.000204
0.260957	0.000278	-0.000105
0.261562	-0.000122	-0.001487
0.262168	-0.000395	-0.001737
0.262773	-0.000490	-0.001425
0.263379	-0.000457	-0.001359
0.263984	-0.000608	-0.001061
0.264590	-0.000697	-0.001353
0.265195	-0.000238	-0.001269
0.265801	-0.001078	0.000221
0.266406	-0.000480	-0.000314
0.267012	-0.000644	1.439350E-5
0.267617	-0.000694	0.000804
0.268223	-0.000572	0.000895
0.268828	0.000195	0.000880
0.269434	-2.040386E-5	0.001155
0.270039	0.000589	0.000312
0.270645	0.000754	0.000936
0.271250	0.001138	0.000352
0.271855	0.001437	-0.000101
0.272461	0.001458	-0.000158
0.273066	0.001443	0.000242
0.273672	0.001352	-0.000232
0.274277	0.001259	0.000732
0.274883	0.001042	0.000729
0.275488	0.001115	0.001212
0.276094	0.000590	0.001125
0.276699	0.000260	0.000675
0.277305	-0.000565	0.001787
0.277910	-0.001217	0.002300
0.278516	-0.001275	0.001956
0.279121	-0.001403	0.002099
0.279727	-0.001612	0.001826
0.280332	-0.001233	0.002831
0.280938	-0.001010	0.002061
0.281543	-0.000648	0.000385
0.282148	-0.000395	0.001595
0.282754	-9.488645E-5	0.002258
0.283359	-6.546896E-5	7.938828E-5
0.283965	0.000411	0.000374
0.284570	3.404981E-5	0.000550
0.285176	0.000166	0.001241
0.285781	-0.000332	0.000722
0.286387	-0.000688	-0.000237
0.286992	-0.000761	0.001221
0.287598	-0.001420	0.001198
0.288203	-0.001201	0.001914
0.288809	-0.001284	0.001915
0.289414	-0.001467	0.001936
0.290020	-0.000815	0.003393
0.290625	-0.000597	0.002258
0.291230	-0.000678	0.001427
0.291836	-1.727434E-5	0.001429
0.292441	-3.354784E-5	0.001626
0.293047	0.000107	0.001430
0.293652	0.000507	0.000453
0.294258	0.001060	0.000986
0.294863	0.000383	0.001270
0.295469	0.000960	0.000387
0.296074	0.000577	0.001107
0.296680	-2.854061E-5	0.001032
0.297285	9.851794E-5	0.001141
0.297891	-0.000195	0.001352
0.298496	-0.000246	0.001564
0.299102	-8.174247E-5	0.001912
0.299707	-1.414482E-5	0.001532
0.300312	-9.801597E-5	0.000142
0.300918	-0.000154	0.000583
0.301523	7.848900E-5	0.000734
0.302129	0.000230	0.000305
0.302734	-0.000248	-0.000911
0.303340	0.000407	0.000152
0.303945	0.000253	0.000923
0.304551	0.000460	0.000670
0.305156	0.000763	0.000156
0.305762	0.000957	-0.000345
0.306367	0.000896	0.001155
0.306973	0.001101	0.000467
0.307578	0.001096	-0.000135
0.308184	0.000883	-0.000148
0.308789	0.001353	0.000793
0.309395	0.001586	-0.000108
0.310000	0.001871	-0.001200
0.310605	0.001820	-0.002087
0.311211	0.002295	-0.001330
0.311816	0.001698	-0.001727
0.312422	0.001746	-0.002921
0.313027	0.002043	-0.001758
0.313633	0.001876	-0.001435
0.314238	0.002140	-0.000777
0.314844	0.002229	-0.001855
0.315449	0.001514	-0.002077
0.316055	0.001627	-0.001321
0.316660	0.001345	-0.001200
0.317266	0.001014	-0.002212
0.317871	0.000800	-0.002690
0.318477	0.000999	-0.002695
0.319082	0.000987	-0.002575
0.319688	0.000729	-0.003781
0.320293	0.001064	-0.003761
0.320898	0.000882	-0.003533
0.321504	0.001392	-0.003649
0.322109	0.001124	-0.002942
0.322715	0.001270	-0.002531
0.323320	0.001280	-0.001875
0.323926	0.001064	-0.000814
0.324531	0.001297	-0.001181
0.325137	0.000897	-0.001413
0.325742	0.001193	-0.000649
0.326348	0.001023	-0.001832
0.326953	0.000698	-0.001375
0.327559	0.000832	-0.001092
0.328164	0.000592	-0.000677
0.328770	0.000479	-0.000959
0.329375	0.000808	-0.001648
0.329980	0.000579	-0.000519
0.330586	0.000731	-8.041541E-5
0.331191	0.000734	-0.001017
0.331797	0.000744	-0.000241
0.332402	0.000617	0.001021
0.333008	0.000653	0.000565
0.333613	0.000531	0.001803
0.334219	0.000353	0.000794
0.334824	0.000367	0.001383
0.335430	1.715039E-5	0.001294
0.336035	-7.485752E-5	0.000920
0.336641	-0.000507	0.000759
0.337246	-0.000583	0.000878
0.337852	-0.000937	0.001615
0.338457	-0.001039	0.001476
0.339062	-0.000875	0.001030
0.339668	-0.000900	0.001810
0.340273	-0.000695	0.001434
0.340879	-0.000472	0.002086
0.341484	-0.000189	0.002575
0.342090	-6.546896E-5	0.002249
0.342695	-2.290747E-5	0.002859
0.343301	0.000371	0.002314
0.343906	-6.171353E-5	0.002841
0.344512	3.467571E-5	0.002488
0.345117	-8.800151E-5	0.002748
0.345723	-0.000613	0.002954
0.346328	-0.000599	0.002964
0.346934	-0.000645	0.003125
0.347539	-0.000918	0.003310
0.348145	-0.001039	0.002687
0.348750	-0.000340	0.002660
0.349355	-0.000944	0.003161
0.349961	-0.000596	0.001968
0.350566	-0.000438	0.002426
0.351172	-3.167013E-5	0.002586
0.351777	7.911491E-5	0.001788
0.352383	0.000619	0.002617
0.352988	0.000296	0.002481
0.353594	0.000143	0.001822
0.354199	2.528715E-5	0.002884
0.354805	-0.000481	0.002645
0.355410	-0.000303	0.002463
0.356016	-0.000397	0.003173
0.356621	-5.044726E-5	0.002360
0.357227	-0.000225	0.002023
0.357832	-7.736114E-5	0.001566
0.358438	8.537395E-5	0.001042
0.359043	0.000410	-4.583103E-5
0.359648	0.000240	0.000411
0.360254	0.000550	-0.000352
0.360859	0.000214	-0.000460
0.361465	0.000425	-1.959460E-5
0.362070	0.000112	-0.000280
0.362676	4.907151E-5	6.209609E-5
0.363281	-0.000239	7.044404E-5
0.363887	-0.000246	-2.376858E-5
0.364492	-0.000540	0.000479
0.365098	-0.000464	0.000434
0.365703	-0.000354	0.000287
0.366309	-0.000451	-7.981913E-5
0.366914	0.000192	-0.000946
0.367520	6.221549E-5	-0.001605
0.368125	0.000673	-0.002387
0.368730	0.000992	-0.002074
0.369336	0.001271	-0.002311
0.369941	0.001215	-0.003102
0.370547	0.001522	-0.002407
0.371152	0.001036	-0.002192
0.371758	0.001444	-0.001869
0.372363	0.000909	-0.001198
0.372969	0.001279	-0.001960
0.373574	0.001335	-0.001552
0.374180	0.001071	-0.001193
0.374785	0.000971	-0.001792
0.375391	0.000642	-0.000854
0.375996	0.000619	-0.001263
0.376602	0.000892	-0.001796
0.377207	0.000859	-0.002228
0.377812	0.000873	-0.002688
0.378418	0.001559	-0.003141
0.379023	0.000797	-0.002672
0.379629	0.001465	-0.002655
0.380234	0.001061	-0.001756
0.380840	0.001424	-0.001082
0.381445	0.001362	-0.001392
0.382051	0.001637	-0.000996
0.382656	0.001282	-0.000647
0.383262	0.001573	-0.001378
0.383867	0.001035	-0.000965
0.384473	0.001480	-0.000888
0.385078	0.000948	-0.001024
0.385684	0.000745	-0.001497
0.386289	0.000396	-0.000835
0.386895	-3.918098E-5	-0.002004
0.387500	-0.000232	-0.001409
0.388105	4.656789E-5	-0.001085
0.388711	0.000271	-0.000626
0.389316	-0.000149	-0.000466
0.389922	0.000252	0.000487
0.390527	-8.049066E-5	0.001451
0.391133	9.851794E-5	0.001918
0.391738	-7.986475E-5	0.001924
0.392344	0.000285	0.001487
0.392949	-2.916652E-5	0.002488
0.393555	2.966848E-5	0.001836
0.394160	-0.000104	0.002512
0.394766	9.639543E-6	0.001287
0.395371	-0.000240	0.002036
0.395977	0.000253	0.002243
0.396582	-2.878541E-6	0.001286
0.397187	-0.000335	0.000784
0.397793	-0.000106	0.000131
0.398398	-0.000513	0.001807
0.399004	-0.000137	0.001899
0.399609	5.533055E-5	0.001620
0.400215	4.656789E-5	0.002195
0.400820	-9.488645E-5	0.003294
0.401426	-0.000101	0.003117
0.402031	-0.000768	0.002772
0.402637	-0.000775	0.002447
0.403242	-0.000966	0.003797
0.403848	-0.001328	0.003273
0.404453	-0.001456	0.003286
0.405059	-0.001457	0.003072
0.405664	-0.001377	0.002982
0.406270	-0.001049	0.003200
0.406875	-0.000681	0.001874
0.407480	-0.000324	0.001401
0.408086	0.000121	0.001028
0.408691	0.000644	0.001915
0.409297	0.000568	0.001611
0.409902	0.001057	0.001149
0.410508	0.001115	0.002201
0.411113	0.000877	0.002254
0.411719	0.000519	0.002764
0.412324	-7.923885E-5	0.002457
0.412930	-0.000746	0.002699
0.413535	-0.000907	0.004064
0.414141	-0.001508	0.003342
0.414746	-0.001234	0.001893
0.415352	-0.001298	0.002089
0.415957	-0.001022	0.000698
0.416563	-0.000634	-9.055221E-5
0.417168	-0.000643	-0.000785
0.417773	-0.000116	-0.000887
0.418379	8.599985E-5	-0.001117
0.418984	0.000279	-0.000571
0.419590	0.000325	-0.000739
0.420195	0.000513	-0.001132
0.420801	5.595645E-5	-0.001009
0.421406	0.000132	-0.000472
0.422012	-0.000302	-0.000136
0.422617	-0.000696	-0.000119
0.423223	-0.000861	0.000781
0.423828	-0.001123	0.000546
0.424434	-0.000811	-0.000114
0.425039	-0.000317	-0.000744
0.425645	0.000388	-0.001621
0.426250	0.000856	-0.003007
0.426855	0.001338	-0.003176
0.427461	0.001733	-0.003418
0.428066	0.002300	-0.003108
0.428672	0.002530	-0.002771
0.429277	0.002813	-0.002569
0.429883	0.002394	-0.001033
0.430488	0.001740	-0.001726
0.431094	0.000920	-0.001331
0.431699	0.000154	-0.000779
0.432305	-0.000389	-0.000622
0.432910	-0.000686	-0.000448
0.433516	-0.000330	-0.000278
0.434121	-0.000285	-0.001153
0.434727	0.000212	-0.001843
0.435332	0.000290	-0.001768
0.435937	0.000289	-0.002265
0.436543	0.000242	-0.003370
0.437148	0.000372	-0.001234
0.437754	0.000217	-0.002360
0.438359	0.000339	0.000174
0.438965	-0.000139	3.943736E-5
0.439570	-0.000185	0.000371
0.440176	-0.000156	0.000568
0.440781	-0.000373	0.001382
0.441387	-1.915205E-5	0.001490
0.441992	0.000229	0.000447
0.442598	0.000374	0.000899
0.443203	0.000480	0.001277
0.443809	0.001005	0.000619
0.444414	0.001222	-0.000977
0.445020	0.001719	-0.000635
0.445625	0.002004	-0.001427
0.446230	0.002254	-0.001179
0.446836	0.002170	-0.000317
0.447441	0.002003	-0.000173
0.448047	0.001811	0.000893
0.448652	0.001415	0.001053
0.449258	0.001242	0.001742
0.449863	0.000645	0.001783
0.450469	0.000452	0.001386
0.451074	0.000192	0.001859
0.451680	0.000125	0.001200
0.452285	0.000239	0.001161
0.452891	-1.977795E-5	0.001807
0.453496	-7.923885E-5	0.000501
0.454102	0.000580	0.000975
0.454707	0.000208	0.000639
0.455313	0.000471	0.000175
0.455918	0.000760	0.000886
0.456523	0.000928	0.000850
0.457129	0.001061	0.000294
0.457734	0.000932	0.001907
0.458340	0.001140	0.002259
0.458945	0.000962	0.001459
0.459551	0.000817	0.001731
0.460156	0.000572	0.001637
0.460762	0.000148	0.002158
0.461367	-0.000261	0.002187
0.461973	-0.000144	0.001995
0.462578	4.006405E-6	0.001661
0.463184	0.000283	0.002184
0.463789	0.000627	0.000577
0.464395	0.000942	0.000574
0.465000	0.001239	0.000592
0.465605	0.001265	2.095260E-5
0.466211	0.001620	-0.000172
0.466816	0.001303	0.000169
0.467422	0.001685	0.000522
0.468027	0.001295	-7.624143E-5
0.468633	0.001407	-0.000298
0.469238	0.000939	-0.000760
0.469844	0.000815	-0.000244
0.470449	0.000786	-5.537155E-5
0.471055	0.000800	-3.509795E-5
0.471660	0.000614	-0.001881
0.472266	0.000458	-0.001225
0.472871	0.000219	-0.001111
0.473477	-7.485752E-5	-0.001263
0.474082	-0.000218	-0.002929
0.474687	-0.000459	-0.003867
0.475293	-0.000197	-0.001845
0.475898	-0.000402	-0.003040
0.476504	-5.107316E-5	-0.005047
0.477109	7.135926E-6	-0.003948
0.477715	0.000280	-0.002501
0.478320	0.000411	-0.003489
0.478926	0.000773	-0.003868
0.479531	0.000457	-0.003493
0.480137	0.000792	-0.002397
0.480742	0.000981	-0.001415
0.481348	0.000878	-0.001864
0.481953	0.001293	-0.002942
0.482559	0.001238	-0.002724
0.483164	0.001486	-0.003408
0.483770	0.001281	-0.003972
0.484375	0.001457	-0.004399
0.484980	0.000882	-0.004390
0.485586	0.001131	-0.004130
0.486191	0.000822	-0.003631
0.486797	0.000696	-0.003743
0.487402	0.000406	-0.003484
0.488008	3.217209E-5	-0.002164
0.488613	9.538841E-5	-0.001145
0.489219	-0.000434	-0.001510
0.489824	-0.000482	-0.000875
0.490430	-0.000689	-0.000406
0.491035	-0.000822	-0.000325
0.491641	-0.001397	-0.001179
0.492246	-0.000649	-0.002301
0.492852	-0.000157	-0.001962
0.493457	0.000447	-0.002015
0.494063	0.000946	-0.002442
0.494668	0.001379	-0.002207
0.495273	0.001475	-0.001745
0.495879	0.001677	-0.001676
0.496484	0.001561	-0.001346
0.497090	0.001152	-0.001191
0.497695	0.001133	-0.000978
0.498301	0.000110	-4.344590E-5
0.498906	2.215763E-5	0.000679
0.499512	-0.000430	0.000680
0.500117	-0.000669	0.001601
0.500723	-0.000621	0.001285
0.501328	-0.000517	0.001701
0.501934	-0.000870	0.001698
0.502539	-0.000288	0.001287
0.503145	-0.000236	0.000856
0.503750	-0.000436	0.001869
0.504355	0.000255	0.001252
0.504961	0.000152	0.001733
0.505566	8.412214E-5	0.001038
0.506172	8.768844E-7	0.002210
0.506777	0.000138	0.001987
0.507383	-1.602253E-5	0.003839
0.507988	0.000691	0.001674
0.508594	5.407874E-5	0.006525
0.509199	0.000531	0.004619
0.509805	0.000395	-0.005278
0.510410	0.000276	0.007965
0.511016	0.000567	0.001778
0.511621	-0.000398	0.018770
0.512227	0.000142	0.001758
0.512832	-3.605146E-5	-0.004272
0.513437	-0.000869	0.013052
0.514043	-0.000337	0.000638
0.514648	0.000326	-0.004315
0.515254	-0.000494	0.005162
0.515859	7.348177E-5	-0.002445
0.516465	0.000458	0.008276
0.517070	0.000475	0.008813
0.517676	0.000396	0.002434
0.518281	0.000974	-0.002220
0.518887	0.000659	-0.004259
0.519492	0.000571	0.000286
0.520098	0.000518	0.005497
0.520703	0.000465	-0.006390
0.521309	0.000610	-0.011490
0.521914	0.000173	0.004385
0.522520	0.001302	0.002082
0.523125	0.001044	-0.013347
0.523730	0.000499	-0.003886
0.524336	0.001179	0.002141
0.524941	0.002063	-0.009338
0.525547	0.000624	-0.012152
0.526152	0.001044	0.003205
0.526758	0.001905	-0.009209
0.527363	0.001682	-0.014665
0.527969	0.001537	-0.000177
0.528574	0.002085	-0.004465
0.529180	0.001849	-0.011901
0.529785	0.001594	-0.010905
0.530391	0.002488	-0.008718
0.530996	0.002400	-0.008871
0.531602	0.002744	-0.006820
0.532207	0.002611	-0.015795
0.532813	0.002362	-0.012883
0.533418	0.002197	-0.009187
0.534023	0.001975	-0.013247
0.534629	0.002224	-0.010827
0.535234	0.002115	-0.014291
0.535840	0.001857	-0.013310
0.536445	0.001397	-0.001205
0.537051	0.001032	-0.009085
0.537656	0.000714	-0.011863
0.538262	0.000224	0.002696
0.538867	-0.000305	-0.005809
0.539473	2.278353E-5	-0.005647
0.540078	-0.000289	-0.004319
0.540684	-0.000311	-0.002587
0.541289	-0.000285	0.000837
0.541895	0.000248	-0.002615
0.542500	0.000304	-0.001649
0.543105	0.000345	0.010099
0.543711	0.000698	-0.003622
0.544316	0.001240	-0.002368
0.544922	0.001547	-0.003402
0.545527	0.001628	0.007477
0.546133	0.001635	-0.006675
0.546738	0.001461	-0.013096
0.547344	0.001957	-0.006591
0.547949	0.001752	-0.009388
0.548555	0.001045	-0.004550
0.549160	0.001715	-0.018865
0.549766	0.002380	-0.008019
0.550371	0.001678	0.007914
0.550977	0.001986	0.003950
0.551582	0.001608	0.023442
0.552187	0.001323	0.039794
0.552793	0.000316	0.018431
0.553398	-0.000556	0.021050
0.554004	-0.001489	0.015695
0.554609	-0.002387	0.005483
0.555215	-0.001675	-0.045977
0.555820	-0.001715	-0.041271
0.556426	-0.000631	-0.039499
0.557031	0.000105	-0.051695
0.557637	0.000758	-0.024172
0.558242	0.000191	-0.000814
0.558848	-0.000268	0.003572
0.559453	-0.001130	0.002812
0.560059	-0.001558	-0.020365
0.560664	-0.002536	-0.002681
0.561270	-0.002562	0.001694
0.561875	-0.001707	0.019477
0.562480	-0.001494	-0.009073
0.563086	-0.000654	0.001385
0.563691	0.001298	-0.031544
0.564297	0.002212	-0.078163
0.564902	0.004024	-0.049980
0.565508	0.006161	-0.045419
0.566113	0.005220	-0.082988
0.566719	0.003567	-0.054439
0.567324	0.003165	-0.005498
0.567930	0.001283	0.014164
0.568535	-0.000122	-0.037516
0.569141	0.000131	-0.049271
0.569746	-0.000813	0.002329
0.570352	0.000192	0.026163
0.570957	-0.000450	0.034392
0.571562	-0.000690	0.042813
0.572168	-5.295087E-5	0.096466
0.572773	-0.001832	0.124187
0.573379	-0.005535	0.111094
0.573984	-0.005750	0.112990
0.574590	-0.008605	0.111104
0.575195	-0.013372	0.116040
0.575801	-0.012211	0.131641
0.576406	-0.011652	0.108075
0.577012	-0.012349	0.090732
0.577617	-0.011994	0.113035
0.578223	-0.009701	0.103379
0.578828	-0.009729	0.079622
0.579434	-0.009845	0.068130
0.580039	-0.008797	0.045693
0.580645	-0.007096	0.035970
0.581250	-0.006167	0.020169
0.581855	-0.004656	-0.005765
0.582461	-0.003684	-0.010915
0.583066	-0.003000	-0.012357
0.583672	-0.001702	-0.026118
0.584277	-0.000129	-0.042589
0.584883	0.001768	-0.047517
0.585488	0.003421	-0.038847
0.586094	0.005697	-0.054228
0.586699	0.008088	-0.076645
0.587305	0.007949	-0.073762
0.587910	0.008081	-0.073762
0.588516	0.007454	-0.072913
0.589121	0.006033	-0.060080
0.589727	0.005474	-0.058508
0.590332	0.005563	-0.059917
0.590938	0.005722	-0.055592
0.591543	0.005771	-0.051952
0.592148	0.005776	-0.036836
0.592754	0.004717	-0.026166
0.593359	0.002754	-0.022396
0.593965	0.001518	-0.016611
0.594570	-0.000173	-0.011118
0.595176	-0.000597	-0.004792
0.595781	-0.000832	-0.002369
0.596387	-0.001568	0.007118
0.596992	-0.003581	0.025004
0.597598	-0.004702	0.029772
0.598203	-0.005617	0.030387
0.598809	-0.005873	0.041960
0.599414	-0.005155	0.041196
0.600020	-0.003715	0.033521
0.600625	-0.002798	0.035671
0.601230	-0.002499	0.036776
0.601836	-0.001805	0.039733
0.602441	-0.001227	0.041596
0.603047	-0.001080	0.040483
0.603652	-0.000336	0.039501
0.604258	0.000747	0.033409
0.604863	0.000405	0.024975
0.605469	0.000786	0.020496
0.606074	0.001212	0.019985
0.606680	0.000574	0.020946
0.607285	0.000604	0.016855
0.607891	0.000521	0.011305
0.608496	0.000907	0.009582
0.609102	0.000478	0.004159
0.609707	0.000591	-0.000756
0.610313	0.001326	-0.003377
0.610918	0.002008	-0.009208
0.611523	0.002779	-0.015609
0.612129	0.003630	-0.017475
0.612734	0.004671	-0.022762
0.613340	0.004543	-0.032787
0.613945	0.004936	-0.042249
0.614551	0.005031	-0.045936
0.615156	0.004625	-0.043867
0.615762	0.005030	-0.046543
0.616367	0.005474	-0.047042
0.616973	0.005528	-0.044803
0.617578	0.005330	-0.048482
0.618184	0.005017	-0.050769
0.618789	0.003553	-0.048768
0.619395	0.002873	-0.050652
0.620000	0.002198	-0.047651
0.620605	0.002689	-0.045201
0.621211	0.004213	-0.042920
0.621816	0.005145	-0.033353
0.622422	0.005458	-0.025971
0.623027	0.005508	-0.019374
0.623633	0.003744	-0.011217
0.624238	0.001507	-0.002949
0.624844	0.000403	0.002992
0.625449	-0.001754	0.010284
0.626055	-0.002131	0.022218
0.626660	-0.003102	0.035274
0.627266	-0.003847	0.044800
0.627871	-0.004394	0.056473
0.628477	-0.005083	0.067874
0.629082	-0.004824	0.072931
0.629687	-0.004693	0.076938
0.630293	-0.004189	0.078106
0.630898	-0.003631	0.077901
0.631504	-0.002881	0.074213
0.632109	-0.002986	0.070060
0.632715	-0.002756	0.068168
0.633320	-0.003497	0.067004
0.633926	-0.004155	0.061940
0.634531	-0.005579	0.056183
0.635137	-0.006727	0.047254
0.635742	-0.007363	0.036643
0.636348	-0.007692	0.025317
0.636953	-0.007002	0.012102
0.637559	-0.005412	0.002057
0.638164	-0.004114	-0.009725
0.638770	-0.001919	-0.023456
0.639375	7.598538E-5	-0.033049
0.639980	0.001065	-0.043057
0.640586	0.003548	-0.053054
0.641191	0.004770	-0.061486
0.641797	0.006235	-0.068038
0.642402	0.007538	-0.074110
0.643008	0.008971	-0.077421
0.643613	0.009092	-0.076920
0.644219	0.009321	-0.074686
0.644824	0.008824	-0.072573
0.645430	0.008297	-0.069009
0.646035	0.007074	-0.064631
0.646641	0.006714	-0.058852
0.647246	0.005545	-0.052056
0.647852	0.005021	-0.044780
0.648457	0.004055	-0.033908
0.649062	0.003170	-0.022873
0.649668	0.002255	-0.013992
0.650273	0.001097	-0.005960
0.650879	0.000612	0.002781
0.651484	-0.000595	0.013790
0.652090	-0.001932	0.022739
0.652695	-0.002766	0.032057
0.653301	-0.003522	0.041533
0.653906	-0.004616	0.048189
0.654512	-0.004506	0.053128
0.655117	-0.005127	0.057450
0.655723	-0.004880	0.059532
0.656328	-0.004611	0.060275
0.656934	-0.004037	0.061306
0.657539	-0.003543	0.061638
0.658145	-0.003504	0.058685
0.658750	-0.001998	0.054339
0.659355	-0.001043	0.048074
0.659961	-0.000976	0.041256
0.660566	-0.001225	0.032651
0.661172	-0.001003	0.025028
0.661777	-0.001113	0.018574
0.662383	-0.000732	0.011241
0.662988	-0.000491	0.005037
0.663594	-0.000183	-0.002644
0.664199	0.000155	-0.010667
0.664805	0.000874	-0.019734
0.665410	0.001262	-0.028865
0.666016	0.001694	-0.036021
0.666621	0.002624	-0.042098
0.667227	0.003056	-0.046975
0.667832	0.004029	-0.048310
0.668438	0.004710	-0.049172
0.669043	0.005290	-0.050614
0.669648	0.005248	-0.051786
0.670254	0.005793	-0.050478
0.670859	0.004807	-0.047948
0.671465	0.004957	-0.046653
0.672070	0.004296	-0.041941
0.672676	0.003500	-0.035517
0.673281	0.002597	-0.029109
0.673887	0.002036	-0.021533
0.674492	0.001021	-0.015705
0.675098	0.000674	-0.009311
0.675703	7.723719E-5	-0.001750
0.676309	-0.000301	0.002652
0.676914	-6.859848E-5	0.007343
0.677520	-0.001122	0.012988
0.678125	-0.001291	0.018981
0.678730	-0.002163	0.024200
0.679336	-0.002553	0.030085
0.679941	-0.002692	0.034301
0.680547	-0.003586	0.038866
0.681152	-0.003955	0.043414
0.681758	-0.004141	0.044239
0.682363	-0.004190	0.044970
0.682969	-0.005083	0.046539
0.683574	-0.004736	0.046180
0.684180	-0.004522	0.045052
0.684785	-0.005105	0.043204
0.685391	-0.004369	0.039779
0.685996	-0.004641	0.036489
0.686602	-0.003786	0.032754
0.687207	-0.003211	0.028348
0.687813	-0.002229	0.025579
0.688418	-0.001380	0.021214
0.689023	-0.000338	0.015629
0.689629	-9.426055E-5	0.010565
0.690234	0.000495	0.004371
0.690840	0.000657	-0.001040
0.691445	0.000623	-0.007929
0.692051	0.001240	-0.013745
0.692656	0.001023	-0.019421
0.693262	0.001429	-0.024755
0.693867	0.001323	-0.030432
0.694473	0.001774	-0.035026
0.695078	0.001731	-0.039554
0.695684	0.002421	-0.044727
0.696289	0.002894	-0.047565
0.696895	0.003103	-0.050090
0.697500	0.003268	-0.050631
0.698105	0.003500	-0.049580
0.698711	0.003567	-0.047471
0.699316	0.003542	-0.045809
0.699922	0.003272	-0.042264
0.700527	0.003133	-0.039382
0.701133	0.002672	-0.035265
0.701738	0.002305	-0.030102
0.702344	0.001925	-0.024685
0.702949	0.001784	-0.018107
0.703555	0.001445	-0.012175
0.704160	0.000898	-0.004530
0.704766	0.000670	0.001680
0.705371	0.000200	0.008025
0.705977	-0.000218	0.014010
0.706582	-0.000426	0.019856
0.707187	-0.000483	0.026618
0.707793	-0.001586	0.031729
0.708398	-0.001856	0.035034
0.709004	-0.002678	0.041687
0.709609	-0.003958	0.045991
0.710215	-0.004295	0.048295
0.710820	-0.005193	0.051277
0.711426	-0.005687	0.050988
0.712031	-0.005629	0.051769
0.712637	-0.005709	0.050094
0.713242	-0.005441	0.046439
0.713848	-0.004799	0.043055
0.714453	-0.004675	0.038637
0.715059	-0.003612	0.032286
0.715664	-0.003254	0.026940
0.716270	-0.002012	0.019469
0.716875	-0.000490	0.014683
0.717480	-9.676417E-5	0.007861
0.718086	0.001069	-0.000229
0.718691	0.001676	-0.005804
0.719297	0.001934	-0.012576
0.719902	0.002344	-0.019845
0.720508	0.002586	-0.025239
0.721113	0.002772	-0.030589
0.721719	0.003339	-0.034803
0.722324	0.002946	-0.038779
0.722930	0.003137	-0.043716
0.723535	0.003294	-0.044775
0.724141	0.003516	-0.046825
0.724746	0.003475	-0.047760
0.725352	0.003291	-0.046731
0.725957	0.003396	-0.045586
0.726562	0.004117	-0.041732
0.727168	0.003517	-0.038470
0.727773	0.003338	-0.034453
0.728379	0.003508	-0.027881
0.728984	0.002609	-0.021529
0.729590	0.002443	-0.014881
0.730195	0.001213	-0.007762
0.730801	0.000595	-0.001405
0.731406	0.000206	0.006740
0.732012	-0.000204	0.012416
0.732617	-0.001392	0.017298
0.733223	-0.001441	0.023445
0.733828	-0.001981	0.028403
0.734434	-0.002535	0.032484
0.735039	-0.003199	0.035478
0.735645	-0.002930	0.038655
0.736250	-0.003154	0.042518
0.736855	-0.002862	0.043702
0.737461	-0.003221	0.044025
0.738066	-0.003245	0.043478
0.738672	-0.003200	0.042763
0.739277	-0.002958	0.040778
0.739883	-0.002795	0.036647
0.740488	-0.002595	0.032311
0.741094	-0.001635	0.028261
0.741699	-0.001364	0.021769
0.742305	-0.000526	0.015184
0.742910	0.000368	0.008214
0.743516	0.001044	0.002507
0.744121	0.001441	-0.004560
0.744727	0.002315	-0.011068
0.745332	0.002696	-0.017602
0.745938	0.003486	-0.022449
0.746543	0.003952	-0.027057
0.747148	0.004619	-0.030389
0.747754	0.004324	-0.033662
0.748359	0.004410	-0.035752
0.748965	0.004077	-0.038255
0.749570	0.003860	-0.039918
0.750176	0.003463	-0.040569
0.750781	0.002998	-0.041306
0.751387	0.003303	-0.041440
0.751992	0.003282	-0.040368
0.752598	0.003483	-0.038886
0.753203	0.003537	-0.035944
0.753809	0.003462	-0.033911
0.754414	0.003274	-0.030053
0.755020	0.003684	-0.024755
0.755625	0.003133	-0.019672
0.756230	0.002708	-0.014322
0.756836	0.001871	-0.008817
0.757441	0.001874	-0.001975
0.758047	0.000485	0.006175
0.758652	0.000443	0.010560
0.759258	-0.000386	0.016763
0.759863	-0.001580	0.022202
0.760469	-0.002262	0.026953
0.761074	-0.003008	0.030814
0.761680	-0.003395	0.032589
0.762285	-0.003724	0.035849
0.762891	-0.003479	0.038749
0.763496	-0.003270	0.039216
0.764102	-0.002847	0.039575
0.764707	-0.002459	0.040504
0.765312	-0.002442	0.040387
0.765918	-0.002514	0.040123
0.766523	-0.001813	0.036691
0.767129	-0.002219	0.034546
0.767734	-0.001816	0.031269
0.768340	-0.001605	0.027966
0.768945	-0.001056	0.024213
0.769551	-0.001096	0.018047
0.770156	-0.000588	0.014043
0.770762	-0.000304	0.008064
0.771367	0.000390	0.001553
0.771973	0.000513	-0.003364
0.772578	0.000817	-0.008648
0.773184	0.001602	-0.014130
0.773789	0.001822	-0.018552
0.774395	0.002289	-0.023995
0.775000	0.002473	-0.027568
0.775605	0.002653	-0.030794
0.776211	0.002946	-0.033210
0.776816	0.002856	-0.035585
0.777422	0.003012	-0.036275
0.778027	0.003425	-0.035475
0.778633	0.002865	-0.035745
0.779238	0.003112	-0.035109
0.779844	0.002471	-0.033531
0.780449	0.002413	-0.032212
0.781055	0.001953	-0.029202
0.781660	0.001766	-0.026262
0.782266	0.001044	-0.024423
0.782871	0.001135	-0.019851
0.783477	0.001114	-0.015041
0.784082	0.001391	-0.010337
0.784687	0.001110	-0.005081
0.785293	0.000974	0.000431
0.785898	0.001167	0.006129
0.786504	0.000163	0.011556
0.787109	-0.000231	0.016691
0.787715	-0.000735	0.021449
0.788320	-0.001497	0.026482
0.788926	-0.002001	0.030052
0.789531	-0.001795	0.032794
0.790137	-0.002945	0.034407
0.790742	-0.002289	0.035738
0.791348	-0.002460	0.036727
0.791953	-0.002873	0.035630
0.792559	-0.002242	0.034019
0.793164	-0.002190	0.031908
0.793770	-0.001707	0.029350
0.794375	-0.001609	0.026957
0.794980	-0.001849	0.023633
0.795586	-0.001478	0.020098
0.796191	-0.001303	0.016286
0.796797	-0.001727	0.012020
0.797402	-0.001059	0.008524
0.798008	-0.001446	0.003596
0.798613	-0.001529	-0.000642
0.799219	-0.001160	-0.004932
0.799824	-0.000602	-0.010254
0.800430	-0.000142	-0.014967
0.801035	0.000708	-0.020070
0.801641	0.001511	-0.024812
0.802246	0.001912	-0.028336
0.802852	0.002834	-0.032351
0.803457	0.003200	-0.033868
0.804063	0.004101	-0.035322
0.804668	0.004557	-0.036539
0.805273	0.004883	-0.036099
0.805879	0.005017	-0.035460
0.806484	0.004729	-0.033093
0.807090	0.004353	-0.030916
0.807695	0.003686	-0.029016
0.808301	0.002359	-0.025139
0.808906	0.001900	-0.021052
0.809512	0.001266	-0.016654
0.810117	0.000717	-0.012192
0.810723	0.000501	-0.007384
0.811328	0.000138	-0.001882
0.811934	-0.000431	0.003186
0.812539	-0.000703	0.007132
0.813145	-0.001332	0.011821
0.813750	-0.001516	0.016169
0.814355	-0.001594	0.022827
0.814961	-0.001978	0.026064
0.815566	-0.001760	0.029323
0.816172	-0.002325	0.034496
0.816777	-0.002105	0.037158
0.817383	-0.002680	0.038812
0.817988	-0.002812	0.039994
0.818594	-0.003356	0.038358
0.819199	-0.003135	0.039284
0.819805	-0.003614	0.037429
0.820410	-0.003121	0.033368
0.821016	-0.002734	0.031370
0.821621	-0.002475	0.027362
0.822227	-0.001564	0.023165
0.822832	-0.001799	0.018045
0.823438	-0.000974	0.011913
0.824043	-0.000785	0.007752
0.824648	-0.000224	0.002058
0.825254	-0.000384	-0.003107
0.825859	0.000371	-0.008540
0.826465	0.000456	-0.013370
0.827070	0.000990	-0.017268
0.827676	0.000990	-0.022359
0.828281	0.001284	-0.026886
0.828887	0.001754	-0.029249
0.829492	0.002245	-0.031531
0.830098	0.002730	-0.033843
0.830703	0.003560	-0.036182
0.831309	0.004008	-0.036742
0.831914	0.003942	-0.037207
0.832520	0.004704	-0.036256
0.833125	0.004335	-0.035145
0.833730	0.004492	-0.032879
0.834336	0.004090	-0.030005
0.834941	0.003638	-0.025670
0.835547	0.002373	-0.022520
0.836152	0.001806	-0.017421
0.836758	0.000462	-0.012400
0.837363	-0.000311	-0.007931
0.837969	-0.001048	-0.002646
0.838574	-0.001342	0.002336
0.839180	-0.001653	0.006854
0.839785	-0.002081	0.010563
0.840391	-0.001693	0.015138
0.840996	-0.001679	0.018804
0.841602	-0.001571	0.021666
0.842207	-0.001513	0.023623
0.842812	-0.001365	0.026454
0.843418	-0.001264	0.028536
0.844023	-0.001082	0.030393
0.844629	-0.001131	0.031640
0.845234	-0.001400	0.031601
0.845840	-0.001391	0.032452
0.846445	-0.001436	0.031639
0.847051	-0.002090	0.030824
0.847656	-0.002071	0.028665
0.848262	-0.001901	0.027331
0.848867	-0.001891	0.022965
0.849473	-0.001701	0.019756
0.850078	-0.001202	0.015641
0.850684	-0.001003	0.011627
0.851289	-2.854061E-5	0.005593
0.851895	0.000632	0.000782
0.852500	0.001126	-0.004203
0.853105	0.001753	-0.008072
0.853711	0.002191	-0.012945
0.854316	0.001991	-0.017798
0.854922	0.002268	-0.020377
0.855527	0.002117	-0.023094
0.856133	0.002426	-0.024771
0.856738	0.002543	-0.027617
0.857344	0.002296	-0.029002
0.857949	0.002452	-0.029813
0.858555	0.002095	-0.029626
0.859160	0.001998	-0.030425
0.859766	0.001922	-0.029255
0.860371	0.002042	-0.028065
0.860977	0.001834	-0.026153
0.861582	0.001937	-0.023798
0.862187	0.001251	-0.021776
0.862793	0.001568	-0.017607
0.863398	0.001099	-0.013807
0.864004	0.000870	-0.008736
0.864609	0.000550	-0.004598
0.865215	8.787756E-5	0.000101
0.865820	-0.000364	0.004441
0.866426	-0.000611	0.009748
0.867031	-0.000708	0.013790
0.867637	-0.001624	0.017564
0.868242	-0.001178	0.020033
0.868848	-0.001817	0.022795
0.869453	-0.002118	0.025545
0.870059	-0.001932	0.026974
0.870664	-0.001831	0.028818
0.871270	-0.002311	0.028612
0.871875	-0.001458	0.029428
0.872480	-0.001807	0.029592
0.873086	-0.001886	0.028228
0.873691	-0.001581	0.027136
0.874297	-0.001663	0.025906
0.874902	-0.002012	0.023943
0.875508	-0.001372	0.020549
0.876113	-0.001554	0.017364
0.876719	-0.000904	0.013797
0.877324	-0.000315	0.010577
0.877930	-0.000579	0.005556
0.878535	0.000598	0.001273
0.879141	0.000653	-0.003221
0.879746	0.001341	-0.007504
0.880352	0.001782	-0.012542
0.880957	0.002378	-0.016622
0.881563	0.002782	-0.019480
0.882168	0.003370	-0.022353
0.882773	0.002925	-0.025811
0.883379	0.003647	-0.027966
0.883984	0.003169	-0.029310
0.884590	0.002178	-0.029777
0.885195	0.002552	-0.030200
0.885801	0.001760	-0.030725
0.886406	0.001275	-0.028827
0.887012	0.001255	-0.026914
0.887617	0.000820	-0.025429
0.888223	0.000310	-0.022755
0.888828	0.000605	-0.019757
0.889434	0.000185	-0.016518
0.890039	0.000436	-0.013792
0.890645	0.000388	-0.010391
0.891250	0.000663	-0.006496
0.891855	0.001061	-0.001676
0.892461	0.001159	0.001826
0.893066	0.001329	0.005456
0.893672	0.001435	0.010759
0.894277	0.001136	0.015271
0.894883	0.000360	0.017699
0.895488	0.000204	0.021429
0.896094	-0.001021	0.023634
0.896699	-0.001435	0.026723
0.897305	-0.002021	0.028803
0.897910	-0.002130	0.028619
0.898516	-0.003028	0.030473
0.899121	-0.002829	0.030752
0.899727	-0.002945	0.029226
0.900332	-0.003142	0.028253
0.900937	-0.002774	0.026050
0.901543	-0.001943	0.024169
0.902148	-0.002015	0.022686
0.902754	-0.001431	0.017754
0.903359	-0.000610	0.015150
0.903965	-0.000524	0.011986
0.904570	8.287033E-5	0.008890
0.905176	0.000389	0.004543
0.905781	0.000953	0.000863
0.906387	0.000640	-0.003060
0.906992	0.001738	-0.007744
0.907598	0.001426	-0.011049
0.908203	0.002056	-0.014514
0.908809	0.002048	-0.018143
0.909414	0.002560	-0.021146
0.910020	0.002542	-0.023798
0.910625	0.003018	-0.026525
0.911230	0.002746	-0.026981
0.911836	0.003206	-0.028046
0.912441	0.003242	-0.027152
0.913047	0.003401	-0.028123
0.913652	0.003431	-0.026550
0.914258	0.002892	-0.025354
0.914863	0.003086	-0.022689
0.915469	0.002649	-0.020580
0.916074	0.002599	-0.017857
0.916680	0.001773	-0.015541
0.917285	0.001675	-0.012125
0.917891	0.001406	-0.008450
0.918496	0.001464	-0.005092
0.919102	0.000937	-0.002267
0.919707	0.001328	0.001392
0.920312	0.001189	0.006476
0.920918	0.000786	0.008372
0.921523	0.000611	0.013122
0.922129	0.000237	0.016618
0.922734	-0.000367	0.019903
0.923340	-0.000625	0.022627
0.923945	-0.000802	0.024413
0.924551	-0.001612	0.026004
0.925156	-0.001477	0.027142
0.925762	-0.001928	0.027182
0.926367	-0.001814	0.026405
0.926973	-0.001943	0.025878
0.927578	-0.001503	0.024135
0.928184	-0.001425	0.022378
0.928789	-0.001280	0.017981
0.929395	-0.000417	0.016274
0.930000	0.000157	0.013103
0.930605	0.000453	0.009033
0.931211	0.001327	0.005046
0.931816	0.001544	0.002758
0.932422	0.001452	-0.001808
0.933027	0.002046	-0.004285
0.933633	0.001441	-0.008451
0.934238	0.002058	-0.011680
0.934844	0.002175	-0.014166
0.935449	0.002183	-0.018146
0.936055	0.001906	-0.020835
0.936660	0.001798	-0.022291
0.937266	0.001313	-0.023858
0.937871	0.001369	-0.025737
0.938477	0.001179	-0.025743
0.939082	0.001409	-0.026424
0.939688	0.001445	-0.025052
0.940293	0.001510	-0.023778
0.940898	0.001842	-0.022913
0.941504	0.001603	-0.021310
0.942109	0.001888	-0.017511
0.942715	0.001830	-0.015432
0.943320	0.001926	-0.013450
0.943926	0.001533	-0.010148
0.944531	0.001652	-0.007086
0.945137	0.000774	-0.002696
0.945742	0.000225	0.001091
0.946348	-0.000102	0.003523
0.946953	-0.000693	0.007680
0.947559	-0.001598	0.012657
0.948164	-0.001737	0.015387
0.948770	-0.001872	0.019419
0.949375	-0.002450	0.021879
0.949980	-0.002597	0.024451
0.950586	-0.002506	0.026452
0.951191	-0.002356	0.027558
0.951797	-0.002242	0.028343
0.952402	-0.002042	0.028926
0.953008	-0.002163	0.029186
0.953613	-0.001694	0.028467
0.954219	-0.002368	0.026740
0.954824	-0.001766	0.023479
0.955430	-0.001889	0.022122
0.956035	-0.001678	0.017936
0.956641	-0.001457	0.015093
0.957246	-0.001392	0.011096
0.957852	-0.000880	0.006886
0.958457	-0.000230	0.004087
0.959063	-0.000117	0.000443
0.959668	6.510022E-6	-0.002931
0.960273	0.000589	-0.006316
0.960879	0.000589	-0.009638
0.961484	0.000860	-0.011760
0.962090	0.000426	-0.014660
0.962695	0.000687	-0.017398
0.963301	0.000534	-0.019335
0.963906	0.000716	-0.020708
0.964512	0.000707	-0.021953
0.965117	0.000592	-0.023644
0.965723	0.000965	-0.023737
0.966328	0.001051	-0.024758
0.966934	0.001107	-0.023981
0.967539	0.001444	-0.022504
0.968145	0.002099	-0.022498
0.968750	0.002556	-0.019119
0.969355	0.002091	-0.017110
0.969961	0.002679	-0.014225
0.970566	0.002351	-0.010463
0.971172	0.001793	-0.008007
0.971777	0.002051	-0.003915
0.972383	0.001288	-0.000188
0.972988	0.000566	0.001848
0.973594	0.000204	0.005603
0.974199	-0.000853	0.008196
0.974805	-0.001293	0.011247
0.975410	-0.001554	0.013707
0.976016	-0.001793	0.015212
0.976621	-0.001626	0.016605
0.977227	-0.001786	0.018515
0.977832	-0.001425	0.018945
0.978437	-0.000967	0.019702
0.979043	-0.000692	0.021243
0.979648	-0.000504	0.021145
0.980254	8.537395E-5	0.021045
0.980859	0.000269	0.020693
0.981465	0.000388	0.019252
0.982070	0.000730	0.018005
0.982676	0.000488	0.015306
0.983281	0.000667	0.012782
0.983887	0.000710	0.009279
0.984492	0.000653	0.006655
0.985098	0.000400	0.003290
0.985703	0.000713	-0.000594
0.986309	0.001012	-0.003300
0.986914	0.000861	-0.006416
0.987520	0.000944	-0.009511
0.988125	0.001406	-0.011365
0.988730	0.001227	-0.013564
0.989336	0.001116	-0.015804
0.989941	0.001820	-0.016815
0.990547	0.001716	-0.017730
0.991152	0.001768	-0.019805
0.991758	0.002106	-0.020674
0.992363	0.001786	-0.021481
0.992969	0.001727	-0.022276
0.993574	0.002025	-0.021102
0.994180	0.001643	-0.021917
0.994785	0.002080	-0.020950
0.995391	0.001847	-0.018821
0.995996	0.001942	-0.017060
0.996602	0.001783	-0.014753
0.997207	0.001134	-0.011784
0.997812	0.001203	-0.008771
0.998418	0.000686	-0.004825
0.999023	0.000452	-0.001705
0.999629	-2.290747E-5	0.002292
1.000234	-1.626732E-6	0.005575
1.000840	-0.000402	0.009403
1.001445	-0.000745	0.012385
1.002051	-0.001009	0.013447
1.002656	-0.000990	0.017149
1.003262	-0.001389	0.018751
1.003867	-0.001619	0.019777
1.004473	-0.002364	0.021016
1.005078	-0.002110	0.021961
1.005684	-0.002548	0.021633
1.006289	-0.002230	0.022636
1.006895	-0.001992	0.021964
1.007500	-0.002024	0.021271
1.008105	-0.001635	0.020482
1.008711	-0.000929	0.019538
1.009316	-0.001431	0.018072
1.009922	-0.000968	0.015319
1.010527	-0.000367	0.014194
1.011133	-0.000750	0.010276
1.011738	-0.000526	0.007797
1.012344	-0.000773	0.004332
1.012949	-0.000382	0.001240
1.013555	-0.000559	-0.002173
1.014160	-0.000377	-0.005894
1.014766	-4.043279E-5	-0.009062
1.015371	0.000117	-0.012140
1.015977	0.000422	-0.015035
1.016582	0.001194	-0.016603
1.017187	0.001736	-0.018125
1.017793	0.001801	-0.019986
1.018398	0.002082	-0.020284
1.019004	0.002414	-0.020749
1.019609	0.002404	-0.020383
1.020215	0.002205	-0.019646
1.020820	0.002888	-0.018543
1.021426	0.002405	-0.017823
1.022031	0.002404	-0.015578
1.022637	0.001940	-0.014669
1.023242	0.002263	-0.012716
1.023848	0.001522	-0.010209
1.024453	0.001276	-0.007974
1.025059	0.001064	-0.005136
1.025664	0.000788	-0.002971
1.026270	0.000503	-0.000355
1.026875	0.000562	0.003315
1.027480	-1.164120E-5	0.006835
1.028086	-0.000388	0.008015
1.028691	-0.000126	0.011027
1.029297	-0.001016	0.013719
1.029902	-0.001118	0.015559
1.030508	-0.000949	0.017596
1.031113	-0.001571	0.018753
1.031719	-0.002019	0.018762
1.032324	-0.001938	0.019763
1.032930	-0.002635	0.018469
1.033535	-0.002344	0.017592
1.034141	-0.002083	0.017679
1.034746	-0.001770	0.015987
1.035352	-0.001561	0.015155
1.035957	-0.001129	0.012789
1.036563	-0.000734	0.011564
1.037168	-0.000440	0.009846
1.037773	-0.000574	0.008204
1.038379	-0.000141	0.005715
1.038984	0.000152	0.003742
1.039590	8.912937E-5	0.001316
1.040195	0.000718	-0.000584
1.040801	0.000940	-0.003470
1.041406	0.001569	-0.005858
1.042012	0.001945	-0.008756
1.042617	0.002161	-0.011492
1.043223	0.002039	-0.013940
1.043828	0.002903	-0.016123
1.044434	0.002304	-0.016829
1.045039	0.002522	-0.019765
1.045645	0.002285	-0.019476
1.046250	0.001997	-0.019458
1.046855	0.002102	-0.018885
1.047461	0.001974	-0.017582
1.048066	0.001171	-0.017606
1.048672	0.001643	-0.015452
1.049277	0.001124	-0.012481
1.049883	0.000491	-0.011182
1.050488	0.001212	-0.009876
1.051094	0.000734	-0.006800
1.051699	0.000706	-0.005197
1.052305	0.000719	-0.002197
1.052910	0.000976	3.347453E-5
1.053516	0.000777	0.002377
1.054121	0.000959	0.004756
1.054727	0.001069	0.008403
1.055332	0.000817	0.010295
1.055937	0.000644	0.011664
1.056543	0.000440	0.015393
1.057148	-8.487199E-5	0.017790
1.057754	-9.488645E-5	0.018452
1.058359	-0.000422	0.020060
1.058965	-0.000175	0.019488
1.059570	-0.000620	0.019473
1.060176	-0.000556	0.019819
1.060781	-0.000253	0.018314
1.061387	-0.000392	0.017178
1.061992	-4.756253E-6	0.016078
1.062598	0.000202	0.013767
1.063203	0.000156	0.010529
1.063809	0.000401	0.008300
1.064414	0.000560	0.005910
1.065020	0.000674	0.002463
1.065625	0.000796	0.000377
1.066230	0.001032	-0.002558
1.066836	0.001128	-0.005349
1.067441	0.001259	-0.006195
1.068047	0.001862	-0.009281
1.068652	0.001933	-0.010972
1.069258	0.001955	-0.011431
1.069863	0.002149	-0.014770
1.070469	0.001941	-0.015275
1.071074	0.001792	-0.016673
1.071680	0.002035	-0.017368
1.072285	0.001651	-0.017340
1.072891	0.001803	-0.019059
1.073496	0.002113	-0.019139
1.074102	0.001742	-0.017798
1.074707	0.002292	-0.017538
1.075312	0.002075	-0.015092
1.075918	0.002177	-0.014402
1.076523	0.001770	-0.013010
1.077129	0.001537	-0.010266
1.077734	0.001399	-0.008842
1.078340	0.000756	-0.006789
1.078945	0.000902	-0.002668
1.079551	0.000414	5.017044E-5
1.080156	0.000745	0.001927
1.080762	0.000527	0.003706
1.081367	0.000796	0.006083
1.081973	0.000225	0.008328
1.082578	0.000327	0.010163
1.083184	-0.000238	0.010733
1.083789	-0.000542	0.012701
1.084395	-0.000559	0.014000
1.085000	-0.000913	0.015181
1.085605	-0.001252	0.015574
1.086211	-0.001438	0.016062
1.086816	-0.001644	0.017955
1.087422	-0.002367	0.017635
1.088027	-0.001866	0.017629
1.088633	-0.002301	0.018190
1.089238	-0.002137	0.016945
1.089844	-0.002071	0.015482
1.090449	-0.001644	0.013399
1.091055	-0.001216	0.010650
1.091660	-0.000800	0.009610
1.092266	-0.000232	0.006017
1.092871	0.000754	0.002834
1.093477	0.001009	0.000602
1.094082	0.001790	-0.001665
1.094688	0.002031	-0.004022
1.095293	0.001609	-0.006295
1.095898	0.002254	-0.008197
1.096504	0.001561	-0.009818
1.097109	0.000877	-0.010580
1.097715	0.000659	-0.012813
1.098320	0.000748	-0.011902
1.098926	0.000753	-0.012568
1.099531	0.000894	-0.013999
1.100137	0.000834	-0.014156
1.100742	0.000936	-0.013499
1.101348	0.000883	-0.013812
1.101953	0.000593	-0.013589
1.102559	0.001027	-0.012821
1.103164	0.000669	-0.012640
1.103770	0.001004	-0.010222
1.104375	0.001340	-0.009344
1.104980	0.001388	-0.007461
1.105586	0.001204	-0.004689
1.106191	0.001715	-0.002079
1.106797	0.001385	-0.000930
1.107402	0.000739	0.002045
1.108008	0.000203	0.004489
1.108613	0.000866	0.007570
1.109219	-0.000243	0.009185
1.109824	-0.000532	0.009974
1.110430	1.151726E-5	0.012523
1.111035	-0.000331	0.013238
1.111641	-8.174247E-5	0.013844
1.112246	-0.000181	0.013212
1.112852	0.000119	0.014803
1.113457	0.000335	0.014548
1.114062	3.092028E-5	0.014672
1.114668	0.000145	0.013712
1.115273	0.000140	0.013398
1.115879	-0.000112	0.012556
1.116484	-0.000210	0.010527
1.117090	-0.000760	0.008166
1.117695	-0.000502	0.006602
1.118301	-0.000375	0.004398
1.118906	-0.000239	0.002096
1.119512	-0.000492	-0.000235
1.120117	-8.362018E-5	-0.003059
1.120723	0.000287	-0.004153
1.121328	0.000309	-0.007929
1.121934	0.000780	-0.009863
1.122539	0.001052	-0.010878
1.123145	0.001077	-0.012501
1.123750	0.001402	-0.013632
1.124355	0.001304	-0.014710
1.124961	0.001686	-0.015272
1.125566	0.002090	-0.014757
1.126172	0.001934	-0.015360
1.126777	0.002051	-0.015832
1.127383	0.001983	-0.014366
1.127988	0.001922	-0.014013
1.128594	0.001752	-0.013007
1.129199	0.001696	-0.011618
1.129805	0.001427	-0.009971
1.130410	0.001208	-0.009574
1.131016	0.001130	-0.006508
1.131621	0.000940	-0.005382
1.132227	0.001023	-0.002689
1.132832	0.000702	-0.000309
1.133438	0.000517	0.001166
1.134043	0.000760	0.003512
1.134648	0.000315	0.006372
1.135254	0.000294	0.007270
1.135859	2.128693E-6	0.009096
1.136465	-0.000684	0.011633
1.137070	-0.001283	0.012421
1.137676	-0.001541	0.013380
1.138281	-0.002403	0.013704
1.138887	-0.002406	0.016101
1.139492	-0.002537	0.016008
1.140098	-0.002302	0.016197
1.140703	-0.001892	0.015019
1.141309	-0.001307	0.014897
1.141914	-0.001036	0.015077
1.142520	-0.000729	0.012746
1.143125	-0.000327	0.010726
1.143730	-0.000289	0.010813
1.144336	2.716486E-5	0.009782
1.144941	-2.728880E-5	0.007796
1.145547	0.000334	0.006417
1.146152	0.000313	0.004879
1.146758	0.000378	0.003462
1.147363	0.000120	0.001449
1.147969	5.282693E-5	-0.001548
1.148574	-0.000370	-0.003678
1.149180	0.000183	-0.004611
1.149785	-3.980689E-5	-0.007284
1.150391	0.000539	-0.009154
1.150996	0.001236	-0.010552
1.151602	0.001494	-0.011806
1.152207	0.002009	-0.013737
1.152813	0.001884	-0.015013
1.153418	0.001984	-0.014853
1.154023	0.001424	-0.015304
1.154629	0.001576	-0.014215
1.155234	0.001224	-0.014689
1.155840	0.001319	-0.013634
1.156445	0.001098	-0.011184
1.157051	0.000996	-0.010979
1.157656	0.000641	-0.009706
1.158262	8.599985E-5	-0.008012
1.158867	0.000187	-0.006529
1.159473	0.000308	-0.002965
1.160078	-0.000109	-0.002536
1.160684	0.000247	-0.000184
1.161289	0.000265	0.003007
1.161895	-0.000137	0.004179
1.162500	-0.000123	0.006374
1.163105	-0.000131	0.008318
1.163711	-0.000693	0.010072
1.164316	-0.000304	0.012637
1.164922	-0.000768	0.012266
1.165527	-0.000311	0.012640
1.166133	-0.000210	0.014836
1.166738	0.000155	0.013893
1.167344	0.000622	0.013791
1.167949	0.000192	0.012716
1.168555	0.000174	0.011464
1.169160	0.000514	0.011619
1.169766	-0.000349	0.010098
1.170371	-0.000122	0.008021
1.170977	1.652449E-5	0.007463
1.171582	-0.000291	0.005832
1.172187	9.538841E-5	0.003990
1.172793	-0.000438	0.003133
1.173398	-0.000263	0.000614
1.174004	-0.000519	-0.000825
1.174609	-0.000495	-0.003246
1.175215	-7.885774E-6	-0.005684
1.175820	-5.920992E-5	-0.006665
1.176426	0.000764	-0.008760
1.177031	0.001235	-0.010011
1.177637	0.001286	-0.010983
1.178242	0.002003	-0.012713
1.178848	0.002140	-0.012759
1.179453	0.002323	-0.013412
1.180059	0.002522	-0.013865
1.180664	0.002604	-0.012217
1.181270	0.002582	-0.011897
1.181875	0.002687	-0.010570
1.182480	0.002043	-0.009010
1.183086	0.001350	-0.008786
1.183691	0.000845	-0.006839
1.184297	7.035225E-5	-0.005090
1.184902	-0.000296	-0.004062
1.185508	-0.000651	-0.002672
1.186113	-0.001123	-0.001388
1.186719	-0.001107	0.000819
1.187324	-0.001705	0.002369
1.187930	-0.001861	0.003468
1.188535	-0.001275	0.005275
1.189141	-0.001550	0.007438
1.189746	-0.001536	0.008944
1.190352	-0.000474	0.010433
1.190957	-0.000578	0.012468
1.191563	-0.000122	0.012725
1.192168	0.000420	0.015249
1.192773	0.000351	0.014493
1.193379	0.000888	0.014375
1.193984	0.000758	0.014075
1.194590	0.000633	0.014530
1.195195	0.000777	0.014599
1.195801	0.000206	0.013374
1.196406	0.000296	0.011358
1.197012	0.000178	0.010873
1.197617	-0.000388	0.009044
1.198223	0.000337	0.007590
1.198828	4.006405E-6	0.005993
1.199434	8.768844E-7	0.003368
1.200039	0.000245	0.001911
1.200645	0.000612	2.035632E-5
1.201250	0.000375	-0.001706
1.201855	0.000930	-0.003893
1.202461	0.001155	-0.005480
1.203066	0.001165	-0.006865
1.203672	0.001245	-0.008498
1.204277	0.001179	-0.010246
1.204883	0.001019	-0.011376
1.205488	0.000766	-0.012685
1.206094	0.000788	-0.013963
1.206699	0.000550	-0.013585
1.207305	0.000826	-0.014289
1.207910	0.000979	-0.015172
1.208516	0.001307	-0.013905
1.209121	0.001494	-0.013447
1.209727	0.001688	-0.012907
1.210332	0.001801	-0.011159
1.210937	0.002023	-0.010521
1.211543	0.002085	-0.007137
1.212148	0.001906	-0.005318
1.212754	0.002210	-0.003510
1.213359	0.001775	-0.001588
1.213965	0.001649	0.000664
1.214570	0.001285	0.002729
1.215176	0.001204	0.004584
1.215781	0.000962	0.005085
1.216387	0.000338	0.006414
1.216992	3.655342E-5	0.008288
1.217598	0.000297	0.008449
1.218203	-0.000265	0.008479
1.218809	0.000179	0.009609
1.219414	0.000162	0.010504
1.220020	-0.000220	0.010468
1.220625	0.000117	0.010218
1.221230	-0.000187	0.010256
1.221836	-0.000144	0.010726
1.222441	-0.000485	0.010642
1.223047	-0.000159	0.010275
1.223652	-0.000531	0.008161
1.224258	-0.000842	0.007470
1.224863	-0.000631	0.006974
1.225469	-0.000206	0.004740
1.226074	-0.000605	0.003617
1.226680	-0.000391	0.001434
1.227285	6.722273E-5	-0.000780
1.227891	-9.488645E-5	-0.002161
1.228496	0.000458	-0.004539
1.229102	0.001189	-0.005105
1.229707	0.001298	-0.005937
1.230312	0.001401	-0.007620
1.230918	0.001963	-0.008385
1.231523	0.001559	-0.009251
1.232129	0.001660	-0.009552
1.232734	0.001657	-0.009586
1.233340	0.001643	-0.009737
1.233945	0.001386	-0.009776
1.234551	0.001522	-0.009435
1.235156	0.001802	-0.008400
1.235762	0.001579	-0.008638
1.236367	0.001102	-0.007729
1.236973	0.001218	-0.006915
1.237578	0.000840	-0.006364
1.238184	0.001113	-0.004779
1.238789	0.000970	-0.003232
1.239395	0.001034	-0.001277
1.240000	0.001221	5.076672E-5
1.240605	0.001452	0.000425
1.241211	0.001404	0.002608
1.241816	0.001156	0.002481
1.242422	0.001156	0.004490
1.243027	0.000551	0.005678
1.243633	-0.000106	0.005829
1.244238	-0.000753	0.007540
1.244844	-0.000716	0.008098
1.245449	-0.001081	0.008476
1.246055	-0.001203	0.009275
1.246660	-0.001822	0.008501
1.247266	-0.001727	0.009796
1.247871	-0.001834	0.011233
1.248477	-0.001968	0.010037
1.249082	-0.001442	0.010830
1.249688	-0.001485	0.010683
1.250293	-0.001118	0.009556
1.250898	-0.000716	0.008873
1.251504	-0.000701	0.007664
1.252109	-0.000797	0.006169
1.252715	5.908597E-5	0.004804
1.253320	-0.000142	0.003990
1.253926	0.000254	0.000451
1.254531	0.000425	-0.001297
1.255137	0.001010	-0.002734
1.255742	0.001169	-0.003803
1.256348	0.001395	-0.006353
1.256953	0.001680	-0.007440
1.257559	0.001808	-0.008633
1.258164	0.001834	-0.010248
1.258770	0.002098	-0.010888
1.259375	0.001741	-0.010954
1.259980	0.001771	-0.012689
1.260586	0.001752	-0.011991
1.261191	0.001227	-0.011261
1.261797	0.001302	-0.012054
1.262402	0.000814	-0.012236
1.263008	0.000523	-0.011406
1.263613	0.000170	-0.010473
1.264219	-0.000452	-0.009499
1.264824	-0.000298	-0.009007
1.265430	-0.000852	-0.007285
1.266035	-0.000603	-0.004783
1.266641	-0.000739	-0.002859
1.267246	-0.000472	-0.002169
1.267852	-0.000356	3.466710E-5
1.268457	-0.000299	0.002820
1.269062	-0.000523	0.005709
1.269668	-0.000147	0.007484
1.270273	-0.000164	0.009070
1.270879	0.000271	0.011142
1.271484	0.000328	0.013199
1.272090	0.000570	0.013984
1.272695	0.000380	0.013508
1.273301	3.279800E-5	0.015089
1.273906	-0.000161	0.014531
1.274512	-9.864188E-5	0.013991
1.275117	-0.000411	0.013294
1.275723	-0.000308	0.011437
1.276328	-0.000236	0.010374
1.276934	-0.000489	0.009892
1.277539	-0.000188	0.007697
1.278145	-0.000312	0.006765
1.278750	-0.000157	0.004933
1.279355	-0.000240	0.004107
1.279961	4.656789E-5	0.001883
1.280566	0.000106	0.000241
1.281172	0.000314	-0.001117
1.281777	0.000365	-0.003345
1.282383	0.000867	-0.004324
1.282988	0.000560	-0.005308
1.283594	0.000769	-0.008215
1.284199	0.000626	-0.009111
1.284805	0.000407	-0.009208
1.285410	0.000423	-0.011367
1.286016	0.000162	-0.010865
1.286621	0.000457	-0.011266
1.287227	0.000356	-0.011478
1.287832	0.000705	-0.010040
1.288437	0.000602	-0.010214
1.289043	0.000944	-0.008829
1.289648	0.000646	-0.007067
1.290254	0.001105	-0.006326
1.290859	0.001219	-0.004875
1.291465	0.001427	-0.003516
1.292070	0.001012	-0.002801
1.292676	0.001167	-0.001934
1.293281	0.000794	-0.001225
1.293887	0.000934	-0.000424
1.294492	0.000807	0.000506
1.295098	0.001017	0.001555
1.295703	0.000730	0.002889
1.296309	0.000549	0.003744
1.296914	0.000111	0.005252
1.297520	-0.000558	0.006119
1.298125	-0.000502	0.006603
1.298730	-0.000974	0.007407
1.299336	-0.000659	0.008469
1.299941	-0.000671	0.008881
1.300547	-0.000393	0.008821
1.301152	-0.000464	0.008802
1.301758	-3.749239E-7	0.007841
1.302363	8.768844E-7	0.007159
1.302969	0.000236	0.006501
1.303574	0.000590	0.005756
1.304180	0.000624	0.005081
1.304785	0.000562	0.003863
1.305391	0.000942	0.002521
1.305996	0.000642	0.001469
1.306602	0.000629	0.000178
1.307207	0.000736	-0.000258
1.307813	0.000485	-0.001884
1.308418	0.000418	-0.002101
1.309023	0.000354	-0.002564
1.309629	0.000602	-0.003847
1.310234	0.000183	-0.004857
1.310840	0.000395	-0.005704
1.311445	0.000115	-0.006006
1.312051	0.000493	-0.006560
1.312656	0.000470	-0.008244
1.313262	0.000962	-0.008440
1.313867	0.000935	-0.007851
1.314473	0.001573	-0.008283
1.315078	0.001420	-0.008159
1.315684	0.001386	-0.009026
1.316289	0.001547	-0.007681
1.316895	0.001151	-0.006416
1.317500	0.001307	-0.005880
1.318105	0.001542	-0.005428
1.318711	0.001446	-0.003220
1.319316	0.001283	-0.001994
1.319922	0.001275	-0.001343
1.320527	0.000810	-0.000866
1.321133	0.000237	0.001360
1.321738	-5.608040E-5	0.002702
1.322344	-0.000138	0.004267
1.322949	-0.000141	0.004974
1.323555	-0.000137	0.005244
1.324160	-0.000627	0.006665
1.324766	-0.000230	0.007265
1.325371	-0.000904	0.006816
1.325977	-0.000737	0.007866
1.326582	-0.000528	0.008445
1.327187	-0.000751	0.009231
1.327793	-0.000364	0.009247
1.328398	3.092028E-5	0.009632
1.329004	-0.000302	0.009344
1.329609	-0.000328	0.008985
1.330215	4.030885E-5	0.009505
1.330820	2.090582E-5	0.008539
1.331426	0.000102	0.007178
1.332031	-0.000117	0.006384
1.332637	0.000386	0.005049
1.333242	-0.000141	0.004368
1.333848	0.000187	0.002816
1.334453	0.000295	0.000546
1.335059	0.000495	-0.000893
1.335664	0.000266	-0.001925
1.336270	0.000323	-0.003773
1.336875	3.467571E-5	-0.004445
1.337480	-0.000299	-0.005352
1.338086	0.000137	-0.006107
1.338691	0.000192	-0.006649
1.339297	0.000395	-0.007649
1.339902	0.000534	-0.008866
1.340508	0.001101	-0.008488
1.341113	0.000520	-0.009173
1.341719	0.001596	-0.010125
1.342324	0.001745	-0.009712
1.342930	0.002190	-0.009388
1.343535	0.002586	-0.009337
1.344141	0.002886	-0.008372
1.344746	0.002794	-0.008527
1.345352	0.002589	-0.006866
1.345957	0.002233	-0.004529
1.346562	0.001661	-0.003003
1.347168	0.001375	-0.001814
1.347773	0.000159	0.000548
1.348379	0.000567	0.002042
1.348984	-0.000117	0.004293
1.349590	-0.000288	0.005311
1.350195	-0.000129	0.005566
1.350801	-0.000107	0.006692
1.351406	-0.000241	0.007781
1.352012	0.000401	0.007316
1.352617	0.000241	0.007427
1.353223	0.000632	0.007728
1.353828	0.001173	0.007486
1.354434	0.001124	0.007324
1.355039	0.001046	0.007356
1.355645	0.000279	0.006370
1.356250	0.000567	0.006105
1.356855	-0.000477	0.006805
1.357461	-0.000458	0.005520
1.358066	-0.000803	0.004924
1.358672	-0.000628	0.004806
1.359277	-0.001105	0.003402
1.359883	-0.000830	0.002762
1.360488	-0.000271	0.002158
1.361094	0.000167	0.000774
1.361699	0.000425	-0.001149
1.362305	0.000902	-0.002029
1.362910	0.001286	-0.003754
1.363516	0.001440	-0.004214
1.364121	0.002273	-0.005142
1.364727	0.001851	-0.005812
1.365332	0.002014	-0.006823
1.365938	0.001853	-0.007192
1.366543	0.002066	-0.008047
1.367148	0.001236	-0.008542
1.367754	0.001553	-0.007618
1.368359	0.001426	-0.008743
1.368965	0.001367	-0.007663
1.369570	0.000984	-0.007415
1.370176	0.000964	-0.006872
1.370781	0.000845	-0.005234
1.371387	0.000342	-0.005468
1.371992	0.000239	-0.004491
1.372598	0.000199	-0.002490
1.373203	-0.000131	-0.001814
1.373809	-0.000253	-0.001024
1.374414	-0.000470	0.000931
1.375020	-0.000948	0.002520
1.375625	-0.000508	0.003831
1.376230	-0.001147	0.003887
1.376836	-0.001108	0.005181
1.377441	-0.000741	0.006737
1.378047	-0.000574	0.008648
1.378652	-0.000862	0.008328
1.379258	-0.000147	0.009006
1.379863	-0.000342	0.009482
1.380469	0.000426	0.010081
1.381074	0.000455	0.009279
1.381680	1.089135E-5	0.008343
1.382285	0.000331	0.008873
1.382891	-0.000229	0.008086
1.383496	0.000423	0.006779
1.384102	0.000285	0.005715
1.384707	0.000426	0.005431
1.385312	0.000848	0.004476
1.385918	0.000410	0.002778
1.386523	-5.420268E-5	0.000264
1.387129	0.000341	0.000818
1.387734	5.783416E-5	0.001300
1.388340	-9.926778E-5	-0.002148
1.388945	5.595645E-5	-0.002737
1.389551	-7.110210E-5	-0.003064
1.390156	0.000273	-0.004297
1.390762	0.000396	-0.004304
1.391367	0.000708	-0.006962
1.391973	0.001231	-0.008188
1.392578	0.001680	-0.006954
1.393184	0.001707	-0.009017
1.393789	0.002009	-0.009256
1.394395	0.001973	-0.007847
1.395000	0.001527	-0.007903
1.395605	0.001283	-0.007531
1.396211	0.000719	-0.007434
1.396816	0.000575	-0.006337
1.397422	-1.226710E-5	-0.004903
1.398027	-0.000475	-0.004256
1.398633	-0.000684	-0.003904
1.399238	-0.000661	-0.002485
1.399844	-0.000885	-0.001482
1.400449	-0.000263	-0.000478
1.401055	-0.000541	-0.000826
1.401660	-0.000148	0.001028
1.402266	0.000105	0.001677
1.402871	0.000107	0.001044
1.403477	0.000797	0.002324
1.404082	0.000977	0.003685
1.404688	0.001344	0.003647
1.405293	0.000898	0.004704
1.405898	0.001474	0.006313
1.406504	0.000929	0.005518
1.407109	0.000612	0.008098
1.407715	-3.354784E-5	0.006261
1.408320	-1.038939E-5	0.007331
1.408926	-0.000904	0.007459
1.409531	-0.000989	0.007284
1.410137	-0.000774	0.006432
1.410742	-0.000850	0.005975
1.411348	-0.000576	0.005629
1.411953	-0.000288	0.004987
1.412559	0.000241	0.002776
1.413164	7.723719E-5	0.001985
1.413770	0.000818	0.001763
1.414375	0.000616	-0.000377
1.414980	0.000644	-0.000811
1.415586	0.000366	-0.002390
1.416191	0.000773	-0.002413
1.416797	0.000303	-0.002713
1.417402	0.000454	-0.004455
1.418008	0.000214	-0.005613
1.418613	5.783416E-5	-0.004817
1.419219	-5.357678E-5	-0.005795
1.419824	0.000236	-0.005342
1.420430	0.000395	-0.005839
1.421035	0.000526	-0.006439
1.421641	0.000790	-0.004605
1.422246	0.000795	-0.005952
1.422852	0.000693	-0.004740
1.423457	0.000492	-0.004641
1.424063	0.000780	-0.003562
1.424668	0.000262	-0.002290
1.425273	0.000349	-0.002435
1.425879	0.000396	-0.001711
1.426484	0.000656	-0.000684
1.427090	0.000308	-0.000625
1.427695	0.000794	0.000255
1.428301	0.000614	0.000481
1.428906	0.000676	0.001369
1.429512	0.000328	0.002570
1.430117	-0.000111	0.002320
1.430723	-9.238284E-5	0.003216
1.431328	-0.000146	0.003820
1.431934	-0.000108	0.004661
1.432539	-0.000345	0.004693
1.433145	-0.000443	0.005288
1.433750	-0.000621	0.005451
1.434355	-0.000750	0.006219
1.434961	-0.001162	0.006260
1.435566	-0.001031	0.006028
1.436172	-0.001155	0.006174
1.436777	-0.000974	0.006263
1.437383	-0.001350	0.005942
1.437988	-0.001160	0.005079
1.438594	-0.001335	0.004993
1.439199	-0.001263	0.004802
1.439805	-0.001223	0.003625
1.440410	-0.000685	0.003182
1.441016	2.128693E-6	0.002729
1.441621	0.000437	0.001099
1.442227	0.000606	0.000776
1.442832	0.001710	-0.001544
1.443437	0.001852	-0.002349
1.444043	0.001884	-0.003268
1.444648	0.001784	-0.004057
1.445254	0.001522	-0.004624
1.445859	0.001175	-0.005313
1.446465	0.000966	-0.005923
1.447070	0.000563	-0.005752
1.447676	0.000395	-0.006364
1.448281	0.000575	-0.006219
1.448887	0.000445	-0.006031
1.449492	2.653896E-5	-0.006663
1.450098	0.000111	-0.005750
1.450703	0.000492	-0.005487
1.451309	0.000474	-0.005267
1.451914	0.000959	-0.005247
1.452520	0.000684	-0.004357
1.453125	0.001382	-0.003271
1.453730	0.001086	-0.002426
1.454336	0.001007	-0.001065
1.454941	0.001055	-5.775668E-5
1.455547	0.000803	0.001255
1.456152	0.000616	0.001681
1.456758	0.000651	0.002184
1.457363	6.910044E-5	0.003024
1.457969	0.000168	0.005258
1.458574	-4.105869E-5	0.005286
1.459180	-0.000203	0.005823
1.459785	-0.000279	0.007319
1.460391	-0.000171	0.007641
1.460996	-0.000355	0.007754
1.461602	8.036671E-5	0.007687
1.462207	0.000158	0.008217
1.462813	0.000560	0.007402
1.463418	0.000982	0.008269
1.464023	0.000376	0.005921
1.464629	0.000876	0.005657
1.465234	8.725166E-5	0.005492
1.465840	9.664022E-5	0.003318
1.466445	0.000171	0.002391
1.467051	0.000169	0.001274
1.467656	-6.797257E-5	0.000299
1.468262	0.000435	-0.000381
1.468867	0.000492	-0.001032
1.469473	0.000291	-0.003348
1.470078	0.000668	-0.003334
1.470684	0.000674	-0.005342
1.471289	0.000749	-0.005142
1.471895	0.000806	-0.005601
1.472500	0.001314	-0.005828
1.473105	0.001163	-0.005512
1.473711	0.001603	-0.006161
1.474316	0.001692	-0.006841
1.474922	0.001671	-0.007010
1.475527	0.001444	-0.007495
1.476133	0.001569	-0.007078
1.476738	0.001347	-0.006079
1.477344	0.001315	-0.006656
1.477949	0.001348	-0.005068
1.478555	0.001195	-0.005677
1.479160	0.001541	-0.004123
1.479766	0.001403	-0.003206
1.480371	0.001338	-0.001795
1.480977	0.001299	-0.000565
1.481582	0.001230	0.000995
1.482187	0.000764	0.001723
1.482793	0.000580	0.002867
1.483398	0.000208	0.003488
1.484004	-0.000322	0.004007
1.484609	-0.000402	0.004610
1.485215	-0.000713	0.004489
1.485820	-0.000668	0.004736
1.486426	-0.000933	0.004164
1.487031	-0.000408	0.005603
1.487637	-0.000758	0.004317
1.488242	-0.000223	0.005132
1.488848	0.000149	0.004642
1.489453	0.000122	0.005399
1.490059	0.000236	0.004619
1.490664	0.000366	0.005355
1.491270	0.000426	0.005096
1.491875	0.000713	0.004595
1.492480	0.001010	0.005269
1.493086	0.000933	0.003444
1.493691	0.000946	0.002311
1.494297	0.000711	0.002839
1.494902	0.000417	0.001341
1.495508	0.000583	-5.954553E-5
1.496113	0.000220	-0.000400
1.496719	0.000134	-0.002274
1.497324	0.000485	-0.001904
1.497930	0.000148	-0.002402
1.498535	0.000222	-0.003786
1.499141	0.000488	-0.003768
1.499746	0.000267	-0.003368
1.500352	8.537395E-5	-0.004166
1.500957	0.000368	-0.004784
1.501562	0.000134	-0.004105
1.502168	0.000150	-0.004142
1.502773	0.000159	-0.004671
1.503379	0.000332	-0.004659
1.503984	0.000234	-0.004722
1.504590	4.218656E-5	-0.005449
1.505195	0.000271	-0.003938
1.505801	-0.000462	-0.003652
1.506406	-0.000136	-0.003557
1.507012	-9.300874E-5	-0.002246
1.507617	-0.000226	-0.001066
1.508223	-0.000291	-0.001218
1.508828	0.000311	0.000182
1.509434	7.661129E-5	0.001990
1.510039	-4.231050E-5	0.002481
1.510645	3.342390E-5	0.004842
1.511250	-4.418822E-5	0.005128
1.511855	-0.000176	0.005901
1.512461	9.351070E-5	0.007153
1.513066	-0.000142	0.007492
1.513672	-0.000114	0.006840
1.514277	0.000229	0.007368
1.514883	-0.000132	0.007259
1.515488	0.000129	0.006472
1.516094	0.000476	0.006503
1.516699	0.000687	0.006287
1.517305	0.000570	0.005653
1.517910	0.000599	0.005312
1.518516	0.000532	0.003708
1.519121	0.000405	0.002635
1.519727	4.093475E-5	0.002466
1.520332	7.598538E-5	0.001844
1.520938	-7.923885E-5	0.001522
1.521543	-0.000129	0.000300
1.522148	-0.000405	-0.000126
1.522754	-0.000301	-0.000388
1.523359	-0.000224	-0.001689
1.523965	-0.000314	-0.003034
1.524570	0.000375	-0.003636
1.525176	-9.426055E-5	-0.004614
1.525781	0.000281	-0.004996
1.526387	0.000312	-0.006022
1.526992	0.000351	-0.007100
1.527598	0.000334	-0.006417
1.528203	0.000511	-0.006832
1.528809	0.000943	-0.006525
1.529414	0.000889	-0.006483
1.530020	0.000903	-0.005360
1.530625	0.001355	-0.003889
1.531230	0.001412	-0.002809
1.531836	0.000728	-0.003018
1.532441	0.000837	-0.002065
1.533047	0.000651	-9.770760E-5
1.533652	0.000154	-0.000126
1.534258	0.000166	-0.000689
1.534863	-8.424608E-5	0.000121
1.535469	-0.000549	0.000580
1.536074	-0.000330	0.000683
1.536680	-0.000654	0.000880
1.537285	-0.000490	0.000602
1.537891	-0.000235	0.000994
1.538496	-0.000152	0.002506
1.539102	0.000671	0.002348
1.539707	0.000485	0.003185
1.540312	0.000548	0.004733
1.540918	0.000564	0.004648
1.541523	0.000258	0.005504
1.542129	-0.000423	0.004631
1.542734	-0.000270	0.005006
1.543340	-0.000390	0.005541
1.543945	-0.000736	0.004926
1.544551	-0.000554	0.003940
1.545156	-0.000774	0.003763
1.545762	-0.001130	0.003752
1.546367	-0.000984	0.002692
1.546973	-0.000803	0.002391
1.547578	-0.000938	0.002113
1.548184	-0.000187	0.001659
1.548789	9.976974E-5	0.001888
1.549395	0.000769	0.002460
1.550000	0.001057	0.000752
1.550605	0.001442	0.000763
1.551211	0.001616	1.737491E-5
1.551816	0.002010	-0.001312
1.552422	0.001217	-0.001884
1.553027	0.001673	-0.003197
1.553633	0.001515	-0.004795
1.554238	0.001111	-0.005480
1.554844	0.001468	-0.006257
1.555449	0.001045	-0.005766
1.556055	0.001119	-0.006098
1.556660	0.001363	-0.006077
1.557266	0.001241	-0.006009
1.557871	0.000974	-0.004800
1.558477	0.001255	-0.004158
1.559082	0.000999	-0.003682
1.559687	0.001125	-0.002142
1.560293	0.000437	-0.002569
1.560898	0.000298	-0.001081
1.561504	-0.000471	-0.000416
1.562109	-0.000487	-7.862656E-5
1.562715	-0.000552	0.001050
1.563320	-0.000502	0.001267
1.563926	-0.000132	0.001673
1.564531	0.000120	0.002088
1.565137	0.000172	0.002574
1.565742	0.000713	0.002538
1.566348	0.001214	0.003154
1.566953	0.001117	0.002670
1.567559	0.001204	0.003263
1.568164	0.001123	0.003504
1.568770	0.001459	0.003083
1.569375	0.000998	0.003612
1.569980	0.001137	0.003916
1.570586	0.000900	0.005090
1.571191	0.000476	0.004311
1.571797	0.000485	0.003526
1.572402	0.000177	0.003336
1.573008	-0.000101	0.002057
1.573613	0.000257	0.001523
1.574219	-0.000306	0.000960
1.574824	1.089135E-5	-0.000893
1.575430	0.000393	-0.001074
1.576035	0.000738	-0.001966
1.576641	0.000987	-0.004527
1.577246	0.001399	-0.004028
1.577852	0.001803	-0.004403
1.578457	0.001689	-0.004835
1.579063	0.001454	-0.005510
1.579668	0.001298	-0.004523
1.580273	0.001119	-0.005054
1.580879	0.000515	-0.005308
1.581484	0.000612	-0.005609
1.582090	0.000558	-0.005096
1.582695	0.000206	-0.004926
1.583301	0.000774	-0.005191
1.583906	0.000781	-0.005654
1.584512	0.000746	-0.005966
1.585117	0.001349	-0.004907
1.585723	0.001777	-0.003838
1.586328	0.001013	-0.004482
1.586934	0.001253	-0.003832
1.587539	0.001100	-0.001408
1.588145	0.000403	-0.001113
1.588750	3.717933E-5	0.000354
1.589355	-0.000341	0.001332
1.589961	-0.000780	0.003119
1.590566	-0.001206	0.004587
1.591172	-0.001011	0.004282
1.591777	-0.001366	0.005098
1.592383	-0.000972	0.005989
1.592988	-0.000584	0.005584
1.593594	-0.000269	0.005907
1.594199	-0.001172	0.004189
1.594805	-0.000138	0.004547
1.595410	-0.000609	0.006346
1.596016	-0.001118	0.004525
1.596621	-0.000584	0.005237
1.597227	-0.000996	0.006381
1.597832	-0.000912	0.006545
1.598437	-0.000706	0.006924
1.599043	-0.000601	0.006305
1.599648	-0.000803	0.004945
1.600254	-0.000111	0.006093
1.600859	-0.000491	0.005352
1.601465	-0.000436	0.002869
1.602070	-0.000186	0.001732
1.602676	0.000184	0.000982
1.603281	-0.000221	0.000377
1.603887	0.000153	-0.000258
1.604492	0.000490	-0.000913
1.605098	6.534501E-5	-0.001813
1.605703	0.000345	-0.001850
1.606309	0.000409	-0.001662
1.606914	0.000134	-0.002827
1.607520	0.000226	-0.002647
1.608125	-0.000114	-0.001690
1.608730	-5.169907E-5	-0.001920
1.609336	7.786310E-5	-0.003671
1.609941	-1.351891E-5	-0.002158
1.610547	-0.000186	-0.003486
1.611152	-8.487199E-5	-0.003279
1.611758	-0.000168	-0.003180
1.612363	-0.000227	-0.003322
1.612969	-0.000104	-0.002542
1.613574	-0.000527	-0.001572
1.614180	0.000371	-0.002188
1.614785	0.000121	-0.001711
1.615391	0.000223	-1.840204E-5
1.615996	0.000101	0.000307
1.616602	0.000393	0.000507
1.617207	0.000165	0.000855
1.617813	0.000328	0.001700
1.618418	-3.749239E-7	0.003293
1.619023	-4.168460E-5	0.004407
1.619629	9.225889E-5	0.003696
1.620234	-0.000488	0.004207
1.620840	-0.000415	0.004510
1.621445	-0.000391	0.005051
1.622051	-0.000619	0.004736
1.622656	-0.000847	0.003839
1.623262	-0.000449	0.004667
1.623867	-0.000346	0.004542
1.624473	0.000702	0.003221
1.625078	0.000672	0.002023
1.625684	0.001751	0.001515
1.626289	0.001490	0.001802
1.626895	0.002221	0.001440
1.627500	0.002206	-0.000166
1.628105	0.001982	-0.000376
1.628711	0.001929	-0.001209
1.629316	0.001698	-0.001123
1.629922	0.001290	-0.001449
1.630527	0.000815	-0.003183
1.631133	0.000920	-0.001829
1.631738	-2.290747E-5	-0.002931
1.632344	0.000251	-0.003611
1.632949	-0.000273	-0.003416
1.633555	0.000159	-0.003941
1.634160	6.659682E-5	-0.004066
1.634766	0.000760	-0.004839
1.635371	0.000923	-0.004753
1.635977	0.001226	-0.004637
1.636582	0.001536	-0.004890
1.637188	0.001820	-0.004324
1.637793	0.001451	-0.003601
1.638398	0.001777	-0.003625
1.639004	0.001465	-0.002554
1.639609	0.001421	-0.002672
1.640215	0.001758	-0.001343
1.640820	0.001366	-0.000690
1.641426	0.001296	-0.001720
1.642031	0.001305	-0.001429
1.642637	0.001260	-0.000546
1.643242	0.001069	-0.000917
1.643848	0.001188	-0.001071
1.644453	0.000998	-3.629051E-5
1.645059	0.000806	0.001374
1.645664	0.000373	0.002612
1.646270	0.000353	0.003047
1.646875	-0.000457	0.003283
1.647480	-0.000857	0.005323
1.648086	-0.001130	0.005582
1.648691	-0.001271	0.005055
1.649297	-0.001736	0.004878
1.649902	-0.001118	0.004822
1.650508	-0.000956	0.005226
1.651113	-0.000204	0.003819
1.651719	0.000354	0.003144
1.652324	0.000696	0.002275
1.652930	0.000818	0.003137
1.653535	0.000933	0.002269
1.654141	0.000977	0.000477
1.654746	0.000212	0.000441
1.655352	0.000985	0.001420
1.655957	0.000826	0.000999
1.656562	0.000291	0.000540
1.657168	0.000513	0.000598
1.657773	0.000379	7.163661E-5
1.658379	-5.295087E-5	0.000424
1.658984	2.653896E-5	-0.001158
1.659590	-8.549789E-5	-0.002152
1.660195	-0.000300	-0.001158
1.660801	-8.987922E-5	-0.001897
1.661406	0.000266	-0.002599
1.662012	6.847453E-5	-0.002585
1.662617	0.000227	-0.003898
1.663223	0.000587	-0.003360
1.663828	0.000472	-0.002788
1.664434	-7.923885E-5	-0.004492
1.665039	0.000400	-0.004359
1.665645	0.000578	-0.001699
1.666250	0.000484	-0.002697
1.666855	0.001149	-0.002505
1.667461	0.001322	-0.001891
1.668066	0.001051	-0.001501
1.668672	0.001571	-0.001081
1.669277	0.001191	-0.000775
1.669883	0.000662	-0.001639
1.670488	0.000811	-0.001254
1.671094	0.000865	0.001989
1.671699	0.000551	0.001957
1.672305	0.000557	0.001198
1.672910	0.000739	0.001832
1.673516	-1.790024E-5	0.003009
1.674121	-0.000147	0.003065
1.674727	-0.000167	0.003987
1.675332	-0.000495	0.002372
1.675938	-0.000434	0.004188
1.676543	-0.000748	0.004884
1.677148	9.664022E-5	0.004275
1.677754	-0.000698	0.002531
1.678359	-0.000426	0.003340
1.678965	8.387734E-6	0.004710
1.679570	-5.169907E-5	0.003690
1.680176	-0.000241	0.002153
1.680781	0.000719	0.002004
1.681387	9.288480E-5	0.002617
1.681992	-0.000151	0.001951
1.682598	0.000460	0.000301
1.683203	-0.000279	-0.001479
1.683809	-0.000116	-0.000289
1.684414	0.000191	-0.000828
1.685020	0.000408	-0.001558
1.685625	0.000312	-0.002243
1.686230	0.000935	-0.002011
1.686836	0.000627	-0.003060
1.687441	0.001974	-0.002226
1.688047	0.000665	-0.003665
1.688652	0.001307	-0.004301
1.689258	0.001365	-0.003370
1.689863	-0.000257	-0.003981
1.690469	0.000641	-0.004740
1.691074	2.027991E-5	-0.003913
1.691680	0.000120	-0.004699
1.692285	0.000529	-0.004770
1.692891	0.000308	-0.003182
1.693496	-8.424608E-5	-0.003844
1.694102	0.000393	-0.002142
1.694707	0.000268	-0.000413
1.695312	-0.000316	-0.000992
1.695918	0.000252	0.001016
1.696523	-0.000259	0.001409
1.697129	-0.000549	0.001889
1.697734	0.000259	0.004832
1.698340	-0.000795	0.003586
1.698945	0.000212	0.003649
1.699551	0.000662	0.004286
1.700156	0.000529	0.004814
1.700762	0.001015	0.004232
1.701367	0.001425	0.004058
1.701973	0.000897	0.003356
1.702578	0.001537	0.003719
1.703184	0.001217	0.004369
1.703789	0.001486	0.004586
1.704395	0.000955	0.003936
1.705000	0.000585	0.004055
1.705605	0.000842	0.005592
1.706211	0.000189	0.003354
1.706816	0.000133	0.002073
1.707422	-6.797257E-5	0.003137
1.708027	-1.852614E-5	0.001385
1.708633	-0.000807	0.000608
1.709238	-0.000320	-0.000888
1.709844	-0.000489	-0.001906
1.710449	-0.000425	-0.002200
1.711055	0.000416	-0.003114
1.711660	-0.000134	-0.004425
1.712266	0.000485	-0.005188
1.712871	0.000462	-0.004764
1.713477	0.000657	-0.005067
1.714082	0.000890	-0.006755
1.714687	0.001363	-0.004421
1.715293	0.001515	-0.004340
1.715898	0.001455	-0.005737
1.716504	0.001370	-0.004463
1.717109	0.001275	-0.004178
1.717715	0.000910	-0.004962
1.718320	0.000310	-0.003953
1.718926	0.000380	-0.003484
1.719531	-0.000116	-0.001672
1.720137	-0.000119	-0.001810
1.720742	-1.727434E-5	-0.001079
1.721348	-4.231050E-5	-0.000149
1.721953	-0.000403	-0.000493
1.722559	-0.000126	0.001373
1.723164	-0.000500	0.000783
1.723770	-0.000447	0.001420
1.724375	-0.000166	0.002874
1.724980	0.000639	0.002004
1.725586	0.000350	0.002135
1.726191	0.000648	0.003474
1.726797	0.000968	0.002627
1.727402	0.000596	0.003723
1.728008	0.000608	0.003008
1.728613	0.000288	0.002205
1.729219	0.000307	0.003911
1.729824	0.000288	0.002352
1.730430	0.000185	0.002244
1.731035	-0.000236	0.002772
1.731641	5.032331E-5	0.001460
1.732246	-0.000503	0.001395
1.732852	-6.609486E-5	0.001149
1.733457	-5.795811E-5	0.002023
1.734063	-0.000440	0.001969
1.734668	-3.417375E-5	0.001288
1.735273	-0.000364	0.002761
1.735879	-0.000701	0.001403
1.736484	-0.000342	0.001813
1.737090	-0.000465	0.000975
1.737695	-0.000315	-8.697452E-5
1.738301	3.655342E-5	0.000701
1.738906	-0.000254	0.000547
1.739512	0.000649	0.000103
1.740117	0.000792	-0.001418
1.740723	0.001163	-0.001698
1.741328	0.001140	-0.001125
1.741934	0.001371	-0.000771
1.742539	0.000979	-0.002428
1.743145	0.000607	-0.001872
1.743750	7.848900E-5	-0.001442
1.744355	-0.000326	-0.001463
1.744961	-0.000687	-0.000431
1.745566	-0.001079	-0.001078
1.746172	-0.001020	-0.000707
1.746777	-0.001396	-6.476389E-6
1.747383	-0.001461	0.000210
1.747988	-0.001957	-0.001026
1.748594	-0.001728	0.000256
1.749199	-0.002406	-0.000260
1.749805	-0.001570	0.000475
1.750410	-0.001695	-0.000564
1.751016	-0.001280	0.000511
1.751621	-0.000175	0.001528
1.752227	0.000122	0.001719
1.752832	-0.000182	0.002148
1.753437	0.000458	0.002515
1.754043	0.000804	0.004201
1.754648	0.000753	0.004083
1.755254	0.001044	0.004148
1.755859	0.000219	0.004543
1.756465	0.000231	0.005136
1.757070	0.000326	0.005661
1.757676	-0.000432	0.004869
1.758281	-0.000209	0.003706
1.758887	-5.482859E-5	0.004751
1.759492	-0.000793	0.004011
1.760098	0.000132	0.002398
1.760703	-3.542556E-5	0.002903
1.761309	0.000157	0.002268
1.761914	0.000936	0.001499
1.762520	0.000818	0.000395
1.763125	0.000565	-0.000795
1.763730	0.000776	-0.001057
1.764336	0.000620	0.000321
1.764941	0.000518	-0.001301
1.765547	0.000328	-0.002398
1.766152	0.000133	-0.002436
1.766758	0.000416	-0.002565
1.767363	-6.108763E-5	-0.003788
1.767969	1.089135E-5	-0.003792
1.768574	0.000206	-0.004957
1.769180	0.000311	-0.003949
1.769785	0.000350	-0.004550
1.770391	0.000708	-0.005446
1.770996	0.000970	-0.003491
1.771602	0.001668	-0.003472
1.772207	0.001664	-0.002951
1.772812	0.001835	-0.002665
1.773418	0.002018	-0.002142
1.774023	0.002317	-0.001218
1.774629	0.002070	-0.000798
1.775234	0.002092	-0.000677
1.775840	0.002063	-0.000345
1.776445	0.001763	0.000853
1.777051	0.001488	0.000317
1.777656	0.001392	-0.000302
1.778262	0.001086	0.000308
1.778867	0.001148	0.000770
1.779473	0.000907	0.000221
1.780078	0.000828	0.000548
1.780684	0.001000	0.000697
1.781289	0.001422	0.001287
1.781895	0.001355	0.001262
1.782500	0.001532	0.001306
1.783105	0.001380	0.002382
1.783711	0.001085	0.002535
1.784316	0.000966	0.002122
1.784922	0.000813	0.001441
1.785527	0.000727	0.001819
1.786133	0.000414	0.001928
1.786738	0.000887	0.000569
1.787344	0.000744	0.000189
1.787949	0.001153	0.000171
1.788555	0.001168	-0.001088
1.789160	0.001459	-0.001506
1.789766	0.001093	-0.001726
1.790371	0.001765	-0.001265
1.790977	0.001452	-0.001123
1.791582	0.001596	-0.001646
1.792188	0.001412	-0.001415
1.792793	0.001299	-0.000705
1.793398	0.001196	-0.002017
1.794004	0.001216	-0.002534
1.794609	0.001357	-0.002180
1.795215	0.000757	-0.002945
1.795820	0.000787	-0.002526
1.796426	0.000562	-0.004228
1.797031	0.000424	-0.003993
1.797637	0.000333	-0.003858
1.798242	0.000329	-0.004438
1.798848	0.000570	-0.003937
1.799453	0.000807	-0.004364
1.800059	0.001186	-0.002364
1.800664	0.001290	-0.002684
1.801270	0.001634	-0.002375
1.801875	0.001722	-0.001076
1.802480	0.001617	2.214517E-5
1.803086	0.001653	0.000111
1.803691	0.000823	0.000413
1.804297	0.000460	0.000818
1.804902	-0.000156	0.002682
1.805508	-0.000932	0.003268
1.806113	-0.001546	0.002624
1.806719	-0.001725	0.003884
1.807324	-0.002006	0.004283
1.807930	-0.001913	0.003467
1.808535	-0.001610	0.004193
1.809141	-0.001297	0.005151
1.809746	-0.000944	0.005610
1.810352	-0.000816	0.005198
1.810957	-0.000325	0.004297
1.811562	-0.000352	0.004272
1.812168	0.000152	0.004571
1.812773	7.348177E-5	0.004628
1.813379	0.000257	0.003696
1.813984	0.000218	0.002669
1.814590	-2.878541E-6	0.003124
1.815195	0.000189	0.002602
1.815801	3.592752E-5	0.001123
1.816406	-0.000333	0.001212
1.817012	-0.000198	5.255557E-5
1.817617	-0.000658	-0.002091
1.818223	-0.000705	-0.001432
1.818828	-0.000557	-0.002300
1.819434	-0.000705	-0.002016
1.820039	-0.000348	-0.001780
1.820645	-0.000524	-0.001965
1.821250	-0.000415	-0.001584
1.821855	-0.000199	-0.001306
1.822461	-0.000662	-0.001498
1.823066	-0.000641	-0.001893
1.823672	-0.000805	-0.000523
1.824277	-0.001434	-0.001114
1.824883	-0.001339	-0.001808
1.825488	-0.001208	-0.001077
1.826094	-0.001136	-0.001360
1.826699	-0.000699	-0.001715
1.827305	-0.000467	-0.001990
1.827910	-0.000218	-0.002198
1.828516	0.000259	-0.000521
1.829121	0.000434	-0.000260
1.829727	0.000626	-0.000102
1.830332	-3.980689E-5	0.000838
1.830937	-1.038939E-5	0.003021
1.831543	-5.232497E-5	0.004051
1.832148	-0.000622	0.003455
1.832754	-0.000710	0.003837
1.833359	-0.000749	0.004046
1.833965	-0.000909	0.005143
1.834570	-0.001031	0.003829
1.835176	-0.000902	0.003265
1.835781	-0.001095	0.003367
1.836387	-0.001103	0.002562
1.836992	-0.000689	0.002239
1.837598	-0.000712	0.001537
1.838203	-0.000208	0.000828
1.838809	-6.734667E-5	0.002113
1.839414	-9.763486E-6	0.001928
1.840020	-3.918098E-5	0.001536
1.840625	1.902811E-5	0.002159
1.841230	0.000421	0.001631
1.841836	0.000458	0.001574
1.842441	0.000187	0.001211
1.843047	0.000756	-0.000175
1.843652	0.000570	-0.000296
1.844258	0.000518	-0.001228
1.844863	0.000740	-0.001406
1.845469	0.000305	-0.002200
1.846074	0.000431	-0.003291
1.846680	0.000316	-0.001705
1.847285	3.467571E-5	-0.001321
1.847891	0.000169	-0.002250
1.848496	0.000134	-0.001818
1.849102	0.000386	-0.002631
1.849707	0.000669	-0.000702
1.850313	0.000778	-0.001489
1.850918	0.000983	-0.002415
1.851523	0.001385	-0.002054
1.852129	0.000776	-0.001659
1.852734	0.001216	-0.002235
1.853340	0.000948	-0.002300
1.853945	0.001068	-0.002661
1.854551	0.000640	-0.001324
1.855156	0.000540	-0.001333
1.855762	0.000425	-0.002191
1.856367	5.094922E-5	-0.001153
1.856973	-0.000276	-3.748308E-5
1.857578	-2.541109E-5	0.000707
1.858184	-0.000134	0.000674
1.858789	-0.000312	0.000584
1.859395	6.158959E-5	0.002041
1.860000	0.000234	0.002761
1.860605	0.000490	0.001718
1.861211	0.000365	0.002296
1.861816	0.000821	0.003123
1.862422	0.000321	0.002955
1.863027	0.000601	0.002264
1.863633	0.000426	0.001751
1.864238	0.000378	0.002245
1.864844	0.000484	0.001808
1.865449	0.000672	0.001163
1.866055	0.000262	0.000460
1.866660	0.000625	0.000296
1.867266	0.000122	7.282917E-5
1.867871	0.000476	-0.000341
1.868477	0.000504	-0.000876
1.869082	0.000216	0.000128
1.869687	0.000726	-0.000115
1.870293	0.000733	0.000548
1.870898	0.000459	-3.032769E-5
1.871504	0.000522	0.000394
1.872109	0.000134	0.000766
1.872715	-0.000142	-6.968233E-5
1.873320	0.000286	-6.014181E-5
1.873926	0.000109	-6.312322E-5
1.874531	0.000742	-0.001414
1.875137	0.000373	-0.001675
1.875742	0.000836	-0.002147
1.876348	0.000915	-0.002935
1.876953	0.001014	-0.002427
1.877559	0.001009	-0.003584
1.878164	0.001149	-0.002293
1.878770	0.001233	-0.001473
1.879375	0.000925	-0.001879
1.879980	0.001096	-0.001045
1.880586	0.001020	-0.000605
1.881191	0.000750	0.000453
1.881797	0.000795	-8.220426E-5
1.882402	0.000679	-0.001373
1.883008	0.000517	-0.000421
1.883613	0.000672	-0.000655
1.884219	0.000756	-0.000630
1.884824	0.000944	-0.000475
1.885430	0.000628	-0.001581
1.886035	0.001126	-4.046449E-5
1.886641	0.000759	-0.000243
1.887246	0.000188	-2.436486E-5
1.887852	0.000401	0.001326
1.888457	-4.756253E-6	0.002463
1.889063	-5.482859E-5	0.002724
1.889668	3.217209E-5	0.002398
1.890273	-0.000432	0.003112
1.890879	-0.000500	0.003135
1.891484	-0.000325	0.002889
1.892090	-0.000479	0.002410
1.892695	-0.000692	0.001751
1.893301	-0.000345	0.001184
1.893906	-7.798704E-5	0.001322
1.894512	-0.000169	-5.239014E-5
1.895117	0.000288	-0.000211
1.895723	0.000468	-0.000156
1.896328	0.000703	3.705223E-5
1.896934	0.000728	-0.000552
1.897539	0.000651	-0.000358
1.898145	0.000528	-0.000479
1.898750	0.000266	-0.000881
1.899355	0.000103	-0.000588
1.899961	0.000373	-0.001172
1.900566	0.000509	-0.001403
1.901172	0.000900	-0.001645
1.901777	0.000840	-0.002474
1.902383	0.000276	-0.002215
1.902988	0.000226	-0.002507
1.903594	0.000183	-0.003080
1.904199	9.976974E-5	-0.003036
1.904805	-0.000173	-0.003262
1.905410	0.000378	-0.001842
1.906016	-0.000107	-0.002127
1.906621	-0.000118	-0.001561
1.907227	-0.000375	-0.000532
1.907832	-0.000720	-8.339682E-5
1.908438	-0.000539	0.000180
1.909043	-0.000886	0.000467
1.909648	-0.000728	0.001067
1.910254	-0.000614	0.002649
1.910859	-0.000246	0.003015
1.911465	-0.000218	0.002582
1.912070	-0.000222	0.002292
1.912676	-0.000260	0.002732
1.913281	-0.000168	0.002457
1.913887	-0.000193	0.002070
1.914492	-0.000121	0.002017
1.915098	0.000413	0.002478
1.915703	0.000468	0.002952
1.916309	0.000753	0.003014
1.916914	0.000752	0.003357
1.917520	0.000189	0.003286
1.918125	-0.000472	0.004036
1.918730	-0.000523	0.004355
1.919336	-0.001501	0.003805
1.919941	-0.001571	0.004248
1.920547	-0.001334	0.004216
1.921152	-0.001418	0.003771
1.921758	-0.001395	0.003806
1.922363	-0.001189	0.002417
1.922969	-0.000552	0.001737
1.923574	-0.000355	0.001007
1.924180	0.000325	-0.000415
1.924785	0.000390	-0.000839
1.925391	0.000545	-0.001112
1.925996	0.000709	-0.001514
1.926602	0.000608	-0.001835
1.927207	0.000243	-0.002013
1.927812	0.000186	-0.001711
1.928418	-0.000157	-0.000993
1.929023	-9.926778E-5	-0.001173
1.929629	-0.000333	-0.000767
1.930234	4.030885E-5	-0.000309
1.930840	0.000170	0.000172
1.931445	0.000224	-0.000814
1.932051	0.000573	-0.000740
1.932656	0.000392	-0.001234
1.933262	0.000344	-0.001244
1.933867	0.000930	-0.000980
1.934473	0.000645	-0.001573
1.935078	0.000627	-0.000758
1.935684	0.000666	-0.000749
1.936289	0.001106	-8.518567E-5
1.936895	0.000756	-3.330910E-5
1.937500	0.000965	-0.000518
1.938105	0.001069	0.000285
1.938711	0.000805	-2.197973E-5
1.939316	0.001094	-0.000504
1.939922	0.001236	0.001917
1.940527	0.001322	0.001518
1.941133	0.001353	0.001665
1.941738	0.001319	0.001859
1.942344	0.001043	0.001333
1.942949	0.001181	0.001170
1.943555	0.001013	0.000412
1.944160	0.001317	0.000456
1.944766	0.000818	9.846932E-5
1.945371	0.001240	-0.000209
1.945977	0.001087	-0.000959
1.946582	0.001082	-0.001055
1.947188	0.000829	-0.001198
1.947793	0.000888	-0.000687
1.948398	0.001010	-0.001676
1.949004	0.000524	-0.001365
1.949609	0.001010	-0.001219
1.950215	0.000706	-0.001596
1.950820	0.001092	-0.001937
1.951426	0.001514	-0.002262
1.952031	0.001158	-0.002548
1.952637	0.001284	-0.003111
1.953242	0.001276	-0.003861
1.953848	0.000532	-0.003663
1.954453	0.000893	-0.002698
1.955059	0.000630	-0.002659
1.955664	0.000438	-0.003401
1.956270	0.000511	-0.002631
1.956875	0.000167	-0.001186
1.957480	0.000199	-0.001345
1.958086	-5.733220E-5	-0.001615
1.958691	-4.856955E-5	-0.001387
1.959297	0.000622	0.000664
1.959902	6.284140E-5	0.000843
1.960508	0.000872	-0.000317
1.961113	0.000478	-6.073809E-5
1.961719	0.000867	-0.000132
1.962324	0.001254	7.238107E-6
1.962930	0.001216	-0.000546
1.963535	0.001482	-0.001758
1.964141	0.001576	-0.000955
1.964746	0.001353	0.000630
1.965352	0.001173	-0.000865
1.965957	0.001083	0.000259
1.966562	0.000539	0.000352
1.967168	0.000834	0.001616
1.967773	-0.000249	0.001240
1.968379	-0.000344	0.000753
1.968984	-0.000852	0.002327
1.969590	-0.001068	0.002925
1.970195	-0.001448	0.003169
1.970801	-0.001382	0.002599
1.971406	-0.001300	0.003011
1.972012	-0.001494	0.003556
1.972617	-0.001647	0.003200
1.973223	-0.001256	0.002321
1.973828	-0.000628	0.003639
1.974434	-0.000321	0.002278
1.975039	0.000198	0.002747
1.975645	0.000158	0.002197
1.976250	0.000900	0.001886
1.976855	8.474804E-5	0.002170
1.977461	-8.800151E-5	0.001637
1.978066	-4.356231E-5	0.002299
1.978672	-0.000471	0.002565
1.979277	-0.000602	0.001599
1.979883	-0.000577	0.001410
1.980488	-0.000910	0.001420
1.981094	-0.000625	0.001574
1.981699	-0.000349	0.000534
1.982305	-0.000838	-0.000474
1.982910	-0.000430	-0.000494
1.983516	-0.000587	-0.000871
1.984121	-0.000521	-0.001362
1.984727	-0.000791	-0.003262
1.985332	-0.000528	-0.002370
1.985937	-0.000580	-0.001378
1.986543	-0.000721	-0.002105
1.987148	-0.000874	-0.002650
1.987754	-0.001048	-0.002353
1.988359	-0.001138	5.911468E-5
1.988965	-0.001355	-0.000386
1.989570	-0.001175	-6.476389E-6
1.990176	-0.001390	0.000307
1.990781	-0.000999	0.001510
1.991387	-0.001068	0.002244
1.991992	-0.000753	0.002261
1.992598	-0.000457	0.001516
1.993203	-0.000281	0.002617
1.993809	-0.000409	0.002186
1.994414	-0.000433	0.002155
1.995020	-0.001176	0.001109
1.995625	-0.000869	0.002199
1.996230	-0.001257	0.003833
1.996836	-0.001147	0.002925
1.997441	-0.001016	0.004170
1.998047	-0.000796	0.004190
1.998652	-0.000377	0.004552
1.999258	-0.000502	0.003123
1.999863	-6.484305E-5	0.002423
2.000469	0.000478	0.001719
2.001074	0.000492	0.001577
2.001680	0.001035	0.000160
2.002285	0.001303	-0.000307
2.002891	0.000841	-0.001153
2.003496	0.001200	-0.001943
2.004102	0.000880	-0.001784
2.004707	0.000574	-0.002294
2.005313	0.000438	-0.002405
2.005918	0.000329	-0.002667
2.006523	-7.259870E-6	-0.002204
2.007129	0.000227	-0.002305
2.007734	0.000316	-0.001706
2.008340	0.000788	-0.001082
2.008945	0.000937	-0.001783
2.009551	0.001055	-0.002316
2.010156	0.001470	-0.001636
2.010762	0.001117	-0.002080
2.011367	0.001674	-0.001898
2.011973	0.001264	-0.001870
2.012578	0.001327	-0.002991
2.013184	0.001358	-0.002028
2.013789	0.001193	-0.001978
2.014395	0.001080	-0.002068
2.015000	0.001037	-0.000901
2.015605	0.000790	-0.000882
2.016211	0.001196	-0.000584
2.016816	0.001233	0.000198
2.017422	0.000942	-0.000185
2.018027	0.001282	-0.000394
2.018633	0.001370	0.001149
2.019238	0.000903	0.000815
2.019844	0.000769	0.000188
2.020449	0.000621	0.000231
2.021055	0.000353	0.001175
2.021660	0.000488	0.000630
2.022266	0.000313	0.000611
2.022871	0.001004	0.000558
2.023477	0.000620	8.535111E-5
2.024082	0.001121	0.000144
2.024688	0.001337	-7.803028E-5
2.025293	0.001314	-0.000885
2.025898	0.000870	-2.853884E-5
2.026504	0.001264	0.000247
2.027109	0.001056	-6.968233E-5
2.027715	0.000559	-0.000515
2.028320	0.001276	-0.000517
2.028926	0.000892	0.000512
2.029531	0.000614	4.256695E-6
2.030137	0.001006	-0.000510
2.030742	0.000696	0.000292
2.031348	0.000421	-0.000761
2.031953	0.000727	-0.001271
2.032559	0.000241	-0.001500
2.033164	0.000763	-0.002777
2.033770	0.000557	-0.002293
2.034375	0.000930	-0.002237
2.034980	0.000283	-0.002433
2.035586	0.000413	-0.002068
2.036191	-0.000171	-0.001276
2.036797	0.000221	-0.001969
2.037402	-0.000334	-0.001204
2.038008	-9.300874E-5	-0.000116
2.038613	-0.000251	0.000212
2.039219	-0.000348	0.000272
2.039824	-0.000116	9.548791E-5
2.040430	-0.000321	0.000327
2.041035	-0.000193	0.001186
2.041641	-9.613826E-5	0.000692
2.042246	0.000196	0.000166
2.042852	-0.000181	0.000859
2.043457	0.000498	0.001332
2.044062	-0.000176	0.001499
2.044668	0.000227	0.002236
2.045273	0.000300	0.002804
2.045879	0.000301	0.002335
2.046484	-0.000321	0.002730
2.047090	4.531608E-5	0.002344
2.047695	-0.000247	0.002756
2.048301	-0.000642	0.003361
2.048906	-4.356231E-5	0.002866
2.049512	-0.000415	0.002590
2.050117	-0.000169	0.002719
2.050723	-0.000295	0.002014
2.051328	-0.000538	0.001627
2.051934	-0.000858	0.000643
2.052539	-0.000826	0.001429
2.053145	-0.000890	0.001812
2.053750	-0.000802	0.000497
2.054355	-0.000982	0.000543
2.054961	-0.000931	0.001871
2.055566	-0.000974	0.001147
2.056172	-0.000984	0.002209
2.056777	-0.001520	0.001788
2.057383	-0.000981	0.001627
2.057988	-0.001173	0.002250
2.058594	-0.001084	0.001837
2.059199	-0.000408	0.001567
2.059805	-0.000438	0.001920
2.060410	4.907151E-5	0.001659
2.061016	0.000185	0.000308
2.061621	0.000333	0.000115
2.062227	2.466124E-5	-0.000279
2.062832	0.001049	5.076672E-5
2.063438	0.000552	-7.266374E-5
2.064043	0.001032	-0.000757
2.064648	0.000845	-0.000501
2.065254	0.000484	-7.668954E-6
2.065859	0.000309	-0.000633
2.066465	-7.986475E-5	-0.000388
2.067070	-0.000106	-3.867564E-5
2.067676	-6.359125E-5	-0.000370
2.068281	-0.000662	-4.091259E-6
2.068887	-0.000721	-0.000671
2.069492	-0.000836	-0.000894
2.070098	-0.001413	-0.002607
2.070703	-0.000827	-0.002027
2.071309	-0.000943	-0.001812
2.071914	-0.000688	-0.001740
2.072520	-0.000614	-0.001618
2.073125	-0.000506	-0.001639
2.073730	-0.000380	-0.000935
2.074336	-0.000432	0.001530
2.074941	-3.417375E-5	0.001008
2.075547	0.000279	0.000731
2.076152	-8.111656E-5	0.002875
2.076758	0.000117	0.003261
2.077363	-0.000247	0.003903
2.077969	-0.000464	0.002823
2.078574	-0.000195	0.002708
2.079180	0.000222	0.003849
2.079785	0.000176	0.003441
2.080391	0.000385	0.000697
2.080996	0.000317	0.001034
2.081602	0.000328	0.001742
2.082207	0.000630	0.001411
2.082813	0.000918	0.000493
2.083418	0.001549	0.000474
2.084023	0.001718	0.000517
2.084629	0.002135	0.001038
2.085234	0.001806	-0.000225
2.085840	0.002238	-0.000823
2.086445	0.001504	-0.000711
2.087051	0.001671	-0.001414
2.087656	0.001355	-0.002310
2.088262	0.000942	-0.003974
2.088867	0.001140	-0.003119
2.089473	0.000492	-0.003222
2.090078	0.000684	-0.003870
2.090684	0.000607	-0.004728
2.091289	0.000640	-0.004606
2.091895	0.000625	-0.003631
2.092500	0.000987	-0.004003
2.093105	0.001014	-0.003960
2.093711	0.001086	-0.003161
2.094316	0.000977	-0.002195
2.094922	0.000843	-0.001534
2.095527	0.000521	-0.001225
2.096133	0.000797	-0.000774
2.096738	0.000766	0.000626
2.097344	0.000264	0.001180
2.097949	0.000724	0.001627
2.098555	0.000209	0.001403
2.099160	0.000336	0.001139
2.099766	0.000266	0.002092
2.100371	0.000984	0.001534
2.100977	0.000993	0.001506
2.101582	0.001241	0.000831
2.102187	0.001192	0.001057
2.102793	0.001528	0.001289
2.103398	0.001222	0.000858
2.104004	0.001473	0.000270
2.104609	0.001156	0.000890
2.105215	0.000943	0.000711
2.105820	0.001183	0.001239
2.106426	0.000672	0.001205
2.107031	0.000227	0.000155
2.107637	0.000219	0.001070
2.108242	-8.299427E-5	0.000225
2.108848	-0.000208	-0.000814
2.109453	-0.000323	-0.000863
2.110059	-4.982135E-5	-0.002072
2.110664	-0.000191	-0.002044
2.111270	-0.000302	-0.002597
2.111875	-0.000461	-0.003138
2.112480	-0.000145	-0.001644
2.113086	-0.000162	-0.001874
2.113691	-0.000503	-0.001720
2.114297	0.000149	-0.000618
2.114902	-0.000559	-0.000516
2.115508	0.000271	-5.298642E-5
2.116113	-0.000206	9.191021E-5
2.116719	0.000378	0.000247
2.117324	0.000290	0.000298
2.117930	0.000794	-0.000820
2.118535	0.000708	-0.000738
2.119141	0.000602	-0.000427
2.119746	0.000743	-0.000793
2.120352	0.000750	1.200837E-5
2.120957	0.000321	-0.000575
2.121563	-2.728880E-5	0.000639
2.122168	0.000685	0.001153
2.122773	-0.000349	0.001349
2.123379	-0.000341	0.000475
2.123984	-0.000472	0.002490
2.124590	-0.000725	0.002916
2.125195	-0.000886	0.000903
2.125801	-0.000912	0.001274
2.126406	-0.001096	0.000692
2.127012	-0.000802	0.001190
2.127617	-0.000845	0.000989
2.128223	-0.000775	-0.000926
2.128828	-0.000696	-0.000234
2.129434	-0.000868	0.000855
2.130039	-0.000437	-0.000216
2.130645	-0.000728	0.000321
2.131250	-0.000615	0.000494
2.131855	-0.000360	0.001956
2.132461	-0.000155	0.002155
2.133066	8.474804E-5	0.001233
2.133672	9.225889E-5	0.002465
2.134277	0.000669	0.002970
2.134883	0.000410	0.002487
2.135488	0.000697	0.001702
2.136094	0.000333	0.001733
2.136699	-1.414482E-5	0.002138
2.137305	4.719379E-5	0.001617
2.137910	-0.000349	0.000450
2.138516	-0.000464	0.000858
2.139121	-0.000624	0.001240
2.139727	-0.000950	0.000394
2.140332	-0.000983	-0.000579
2.140938	-0.001117	-0.000204
2.141543	-0.001084	9.846932E-5
2.142148	-0.000684	-0.000257
2.142754	-0.000574	-0.000900
2.143359	-0.000671	-0.000571
2.143965	-0.000761	-0.000407
2.144570	-0.000326	-0.000441
2.145176	-0.000570	-4.821616E-5
2.145781	-0.000244	0.000227
2.146387	-0.000199	0.000451
2.146992	-8.487199E-5	-0.000176
2.147598	-0.000147	-0.001189
2.148203	-0.000119	-0.001417
2.148809	0.000248	-0.000423
2.149414	0.000227	-0.002276
2.150020	0.000780	-0.002110
2.150625	0.001080	-0.000902
2.151230	0.001534	-0.001069
2.151836	0.001418	-0.000606
2.152441	0.001262	-0.000123
2.153047	0.001422	0.000702
2.153652	0.000619	0.001954
2.154258	8.850347E-5	0.002228
2.154863	0.000177	0.001606
2.155469	-0.000281	0.002890
2.156074	-0.000547	0.002337
2.156680	-0.000398	0.002363
2.157285	-0.000440	0.001616
2.157891	-0.000694	0.001342
2.158496	-3.730327E-5	0.001207
2.159102	6.284140E-5	0.000277
2.159707	0.000278	-0.000337
2.160312	0.001176	-0.000336
2.160918	0.001424	8.833252E-5
2.161523	0.001813	-0.000427
2.162129	0.001435	-0.000127
2.162734	0.001954	1.260465E-5
2.163340	0.002075	-0.000116
2.163945	0.001954	0.000401
2.164551	0.002069	0.000375
2.165156	0.001906	1.797119E-5
2.165762	0.001558	-0.000479
2.166367	0.001030	-0.001390
2.166973	0.001038	-0.002407
2.167578	0.000677	-0.002473
2.168184	0.000482	-0.003097
2.168789	0.000631	-0.003792
2.169395	0.000721	-0.003901
2.170000	0.000353	-0.003506
2.170605	0.000806	-0.003814
2.171211	0.000883	-0.002578
2.171816	0.000708	-0.002433
2.172422	0.001052	-0.002765
2.173027	0.000993	-0.002314
2.173633	0.000559	-0.001735
2.174238	0.000477	-0.001398
2.174844	0.000555	-0.000945
2.175449	0.000140	-0.001290
2.176055	0.000641	-0.001216
2.176660	0.000760	0.000271
2.177266	0.001052	-0.000696
2.177871	0.001231	-0.001416
2.178477	0.001041	-0.001132
2.179082	0.001534	-0.000995
2.179687	0.001476	-8.339682E-5
2.180293	0.001219	-0.000355
2.180898	0.001531	0.000258
2.181504	0.001343	0.001492
2.182109	0.000748	0.002220
2.182715	0.000149	0.001903
2.183320	-0.000111	0.002508
2.183926	-0.000384	0.003286
2.184531	-0.000789	0.003174
2.185137	-0.000972	0.001914
2.185742	-0.001148	0.001651
2.186348	-0.000935	0.001084
2.186953	-0.000785	0.001313
2.187559	-0.000395	0.000685
2.188164	-0.000269	-0.000844
2.188770	5.720826E-5	-0.000525
2.189375	0.000221	-1.243921E-5
2.189980	0.000368	-0.001349
2.190586	0.000504	-0.001178
2.191191	0.000781	0.000664
2.191797	0.000913	0.001175
2.192402	0.000223	0.001426
2.193008	0.000423	0.001705
2.193613	-0.000183	0.001997
2.194219	-0.000373	0.002853
2.194824	-0.000945	0.002515
2.195430	-0.000532	0.001221
2.196035	-0.000899	0.001078
2.196641	-0.000689	0.000386
2.197246	-0.000710	0.000468
2.197852	-0.000799	9.012137E-5
2.198457	-0.000746	-0.000448
2.199063	-0.000239	-0.000502
2.199668	-0.000388	-0.000333
2.200273	-8.987922E-5	-0.000834
2.200879	0.000193	-0.000178
2.201484	0.000124	0.000589
2.202090	0.000311	0.000434
2.202695	0.000291	0.000673
2.203301	0.000228	0.001176
2.203906	-0.000165	0.000751
2.204512	-0.000214	0.001947
2.205117	-0.000557	0.002117
2.205723	-0.000905	0.001680
2.206328	-0.001354	0.001875
2.206934	-0.001018	0.002266
2.207539	-0.001280	0.001863
2.208145	-0.001040	0.002184
2.208750	-0.001197	0.001085
2.209355	-0.000617	0.001654
2.209961	-0.000710	0.002340
2.210566	-5.232497E-5	0.001520
2.211172	0.000159	0.001349
2.211777	0.000396	0.001358
2.212383	0.000497	0.002577
2.212988	0.000429	0.002270
2.213594	4.030885E-5	0.002258
2.214199	1.402087E-5	0.001974
2.214805	-0.000137	0.002306
2.215410	-0.000646	0.001783
2.216016	-0.000552	0.000155
2.216621	-0.000569	-3.271282E-5
2.217227	1.902811E-5	0.000262
2.217832	-4.794364E-5	-0.000331
2.218437	0.000667	-0.000995
2.219043	-3.918098E-5	-0.001721
2.219648	0.000691	-0.000950
2.220254	0.000617	-2.496114E-5
2.220859	0.000339	-0.001082
2.221465	0.000430	-0.000180
2.222070	0.000686	0.000423
2.222676	0.000477	0.001130
2.223281	0.000806	0.000288
2.223887	0.000784	0.000505
2.224492	0.000997	0.000864
2.225098	0.000806	-9.770760E-5
2.225703	0.000709	-0.001237
2.226309	0.000930	-0.001691
2.226914	2.966848E-5	-0.002424
2.227520	0.000718	-0.001933
2.228125	0.000510	-0.003529
2.228730	0.000624	-0.003502
2.229336	0.000793	-0.002517
2.229941	0.001102	-0.002086
2.230547	0.000686	-0.001443
2.231152	0.000174	-0.000849
2.231758	-0.000350	0.000459
2.232363	-0.000248	8.833252E-5
2.232969	-0.000488	0.000666
2.233574	-0.000893	9.131393E-5
2.234180	-0.000101	0.000214
2.234785	-0.000788	0.000280
2.235391	-0.000340	1.871565E-6
2.235996	-2.916652E-5	-5.894924E-5
2.236602	-9.300874E-5	0.000721
2.237207	0.000333	-0.000368
2.237812	0.000913	-0.000153
2.238418	0.001209	0.001267
2.239023	0.001004	0.001135
2.239629	0.001696	0.001270
2.240234	0.001251	0.001310
2.240840	0.001177	0.002085
2.241445	0.000999	0.002219
2.242051	0.000688	0.002314
2.242656	0.000313	0.001008
2.243262	0.000506	0.000923
2.243867	-6.609486E-5	0.000863
2.244473	5.470464E-5	-0.000900
2.245078	-0.000375	-0.001517
2.245684	5.884118E-6	-0.001187
2.246289	-7.673523E-5	-0.001237
2.246895	-0.000514	-0.001110
2.247500	-8.511678E-6	-0.001844
2.248105	1.965401E-5	-0.002120
2.248711	0.000221	-0.001278
2.249316	0.000491	-0.001062
2.249922	0.000799	-0.001253
2.250527	0.000833	-0.001380
2.251133	0.000983	-0.000469
2.251738	0.000796	-0.000344
2.252344	0.000637	0.000169
2.252949	0.000401	-0.000409
2.253555	0.000190	-7.803028E-5
2.254160	-0.000556	0.000117
2.254766	-0.000661	0.000785
2.255371	-0.000753	6.045542E-6
2.255977	-0.000810	9.071765E-5
2.256582	-0.000698	0.000694
2.257188	-0.001032	1.498978E-5
2.257793	-0.000698	0.000536
2.258398	-0.000608	0.000505
2.259004	-0.000634	0.000779
2.259609	-0.000109	0.001689
2.260215	-0.000113	0.001439
2.260820	0.000127	0.002227
2.261426	0.000298	0.002339
2.262031	0.000112	0.002831
2.262637	0.000338	0.002850
2.263242	0.000509	0.001703
2.263848	0.000129	0.002422
2.264453	2.278353E-5	0.001302
2.265059	0.000187	0.000548
2.265664	-0.000266	0.001325
2.266270	-0.000226	0.000667
2.266875	-0.000492	0.000734
2.267480	-0.000695	0.000220
2.268086	-0.000637	-0.000627
2.268691	-0.000888	0.000541
2.269297	-0.000889	0.001634
2.269902	-0.001090	0.001146
2.270508	-0.001293	0.001271
2.271113	-0.000792	0.001317
2.271719	-0.001028	0.001614
2.272324	-0.001014	0.001131
2.272930	-0.000366	0.000446
2.273535	-0.000582	-0.000112
2.274141	-0.000243	-0.000447
2.274746	-4.794364E-5	-0.001523
2.275352	0.000694	-0.001702
2.275957	0.000582	-0.001404
2.276562	0.000806	-0.001244
2.277168	0.001059	-0.001441
2.277773	0.000435	-0.000986
2.278379	0.000361	0.000179
2.278984	0.000295	0.000648
2.279590	-0.000127	0.001459
2.280195	-0.000516	0.001295
2.280801	-0.000570	0.001821
2.281406	-0.001098	0.003196
2.282012	-0.001106	0.002320
2.282617	-0.000949	0.001192
2.283223	-0.001154	0.001431
2.283828	-0.000787	0.001927
2.284434	-0.000243	0.001278
2.285039	-0.000251	0.000216
2.285645	0.000181	-0.001295
2.286250	0.000117	-0.002011
2.286855	0.000323	-0.001911
2.287461	0.000338	-0.002306
2.288066	0.000376	-0.001952
2.288672	0.000437	-0.001531
2.289277	0.000269	-0.000834
2.289883	1.965401E-5	-0.000857
2.290488	-0.000235	-0.000400
2.291094	-0.000734	0.000386
2.291699	-0.000832	0.000541
2.292305	-0.000992	0.000323
2.292910	-0.001051	0.000809
2.293516	-0.000696	0.001491
2.294121	-0.001248	0.000989
2.294727	-0.001004	0.001504
2.295332	-0.001023	0.001602
2.295937	-0.000894	0.002098
2.296543	-0.000510	0.002785
2.297148	1.527268E-5	0.002618
2.297754	-0.000161	0.003035
2.298359	0.000375	0.003843
2.298965	-0.000115	0.003853
2.299570	0.000177	0.004294
2.300176	0.000129	0.003872
2.300781	0.000227	0.002460
2.301387	0.000353	0.002693
2.301992	0.000430	0.001678
2.302598	0.000686	0.000707
2.303203	0.000964	0.000869
2.303809	0.000890	-0.000721
2.304414	0.000749	-0.002215
2.305020	0.000803	-0.002455
2.305625	0.000206	-0.001927
2.306230	0.000729	-0.002990
2.306836	0.000622	-0.002426
2.307441	0.000575	-0.001915
2.308047	0.000700	-0.002370
2.308652	0.000853	-0.000745
2.309258	0.000328	-0.001000
2.309863	0.000601	-0.001933
2.310469	0.000656	-0.000995
2.311074	5.258214E-6	-0.001240
2.311680	0.000920	-0.001524
2.312285	0.000421	-0.001485
2.312891	0.000680	-0.001963
2.313496	0.001167	-0.001135
2.314102	0.000858	-0.000795
2.314707	0.000714	-0.001181
2.315313	0.000943	-0.000472
2.315918	0.000397	0.000171
2.316523	5.846007E-5	0.000379
2.317129	-0.000230	0.000378
2.317734	-0.000196	0.001418
2.318340	0.000214	0.001668
2.318945	-7.736114E-5	0.001833
2.319551	0.000360	0.001949
2.320156	0.000460	0.001575
2.320762	0.000163	0.001480
2.321367	0.000520	0.001869
2.321973	0.001163	0.001571
2.322578	0.001502	0.001122
2.323184	0.002003	0.001286
2.323789	0.002843	-0.000250
2.324395	0.002606	-0.000475
2.325000	0.003281	-0.000540
2.325605	0.003736	-0.002021
2.326211	0.003641	-0.002513
2.326816	0.003791	-0.002544
2.327422	0.004164	-0.002412
2.328027	0.003337	-0.002270
2.328633	0.003212	-0.002788
2.329238	0.002702	-0.002643
2.329844	0.002275	-0.002435
2.330449	0.001474	-0.002796
2.331055	0.001024	-0.003494
2.331660	0.000739	-0.004211
2.332266	0.000919	-0.003843
2.332871	0.000757	-0.004520
2.333477	0.001449	-0.005811
2.334082	0.001564	-0.005504
2.334687	0.001193	-0.005542
2.335293	0.001286	-0.005982
2.335898	0.000945	-0.005647
2.336504	0.000607	-0.005061
2.337109	0.000849	-0.003476
2.337715	0.001286	-0.002659
2.338320	0.001345	-0.001939
2.338926	0.002087	-0.000761
2.339531	0.001752	8.713995E-5
2.340137	0.001798	0.000782
2.340742	0.001275	0.000642
2.341348	0.000876	0.000536
2.341953	0.000668	0.001687
2.342559	0.000517	0.001440
2.343164	0.000420	0.001674
2.343770	0.000430	0.001945
2.344375	0.000578	0.002091
2.344980	0.000237	0.001686
2.345586	3.380501E-6	0.002101
2.346191	-0.000526	0.001660
2.346797	-0.000753	0.002287
2.347402	-0.001041	0.002789
2.348008	-0.001320	0.001741
2.348613	-0.000770	0.001963
2.349219	-0.000900	0.001453
2.349824	-0.000659	-0.000315
2.350430	-0.000380	-0.000151
2.351035	-0.000176	-0.000843
2.351641	-0.000440	-0.001529
2.352246	-6.734667E-5	-0.001971
2.352852	-0.000188	-0.001415
2.353457	0.000118	-0.002046
2.354062	0.000211	-0.000810
2.354668	3.843113E-5	-0.000405
2.355273	-7.798704E-5	0.000290
2.355879	0.000114	0.001274
2.356484	-0.000132	0.002473
2.357090	-0.000319	0.002075
2.357695	-0.000329	0.003603
2.358301	-0.000611	0.005011
2.358906	-0.000166	0.004738
2.359512	-0.000804	0.004187
2.360117	-0.000619	0.004382
2.360723	-0.000410	0.004416
2.361328	-0.000701	0.004162
2.361934	-0.001185	0.002577
2.362539	-0.000359	0.001973
2.363145	-0.000744	0.002531
2.363750	-0.000422	0.002381
2.364355	-0.000678	0.001268
2.364961	-0.000884	0.001186
2.365566	-0.000748	0.001308
2.366172	-0.001043	0.001134
2.366777	-0.001086	0.001447
2.367383	-0.001543	0.001154
2.367988	-0.001336	0.001255
2.368594	-0.001843	0.001765
2.369199	-0.001894	0.000499
2.369805	-0.002296	0.000590
2.370410	-0.001465	0.001298
2.371016	-0.001556	0.000719
2.371621	-0.000795	-0.000488
2.372227	-0.000610	-0.000678
2.372832	0.000580	-0.000317
2.373438	0.001305	-4.165705E-5
2.374043	0.001564	-0.000422
2.374648	0.002031	-0.000151
2.375254	0.001692	-6.431578E-5
2.375859	0.001478	0.000868
2.376465	0.001034	0.001311
2.377070	0.000725	0.002340
2.377676	-0.000138	0.002168
2.378281	0.000103	0.002849
2.378887	-0.000761	0.001952
2.379492	-0.001140	0.001549
2.380098	-0.001194	0.001362
2.380703	-0.001196	0.000763
2.381309	-0.001292	0.001145
2.381914	-0.001364	0.000540
2.382520	-0.000878	-0.000840
2.383125	-0.000306	-2.257601E-5
2.383730	-0.000169	-0.000725
2.384336	-0.000216	-0.001349
2.384941	2.466124E-5	-0.001025
2.385547	-0.000102	-0.001118
2.386152	0.000385	-0.001327
2.386758	-1.977795E-5	-0.001003
2.387363	0.000388	-0.001435
2.387969	0.000386	-0.002548
2.388574	0.000413	-0.001702
2.389180	0.000446	-0.002033
2.389785	0.001020	-0.003512
2.390391	0.000579	-0.002934
2.390996	0.001376	-0.003405
2.391602	0.001409	-0.002789
2.392207	0.001430	-0.004204
2.392812	0.002163	-0.003693
2.393418	0.002146	-0.002795
2.394023	0.002016	-0.002423
2.394629	0.001700	-0.002237
2.395234	0.001636	-0.001399
2.395840	0.000985	-0.001219
2.396445	0.000698	0.000416
2.397051	7.410767E-5	0.001177
2.397656	2.528715E-5	0.001079
2.398262	-0.000433	0.001875
2.398867	-0.000447	0.002366
2.399473	-0.000355	0.002549
2.400078	-0.000206	0.001716
2.400684	0.000142	0.001319
2.401289	0.000887	0.001693
2.401895	0.000933	0.000731
2.402500	0.001583	-1.899832E-5
2.403105	0.001747	0.001318
2.403711	0.001578	0.001318
2.404316	0.001331	0.001485
2.404922	0.001002	0.001780
2.405527	0.000885	0.001365
2.406133	0.000140	0.002571
2.406738	-0.000202	0.002435
2.407344	-0.000718	0.001820
2.407949	-0.001135	0.001475
2.408555	-0.001169	0.001293
2.409160	-0.001072	0.000920
2.409766	-0.001037	-0.000364
2.410371	-0.000669	-0.001616
2.410977	0.000211	-0.001678
2.411582	0.000130	-0.001998
2.412187	0.000754	-0.002833
2.412793	0.001288	-0.002860
2.413398	0.001271	-0.002799
2.414004	0.001148	-0.002759
2.414609	0.000924	-0.002042
2.415215	0.000882	-0.001531
2.415820	0.000196	-0.000392
2.416426	0.000391	-0.000477
2.417031	-0.000370	-0.000593
2.417637	-0.000351	-0.000253
2.418242	-0.000644	-0.000488
2.418848	-0.000956	0.000129
2.419453	-0.000830	-0.000510
2.420059	-0.000745	-0.000675
2.420664	-0.000692	8.415854E-5
2.421270	-0.000370	-5.135646E-7
2.421875	-0.000468	0.001247
2.422480	-0.000611	0.000330
2.423086	-7.172800E-5	0.001174
2.423691	-0.000561	0.002094
2.424297	-0.000581	0.002132
2.424902	-0.000618	0.002702
2.425508	-0.001138	0.002707
2.426113	-0.001150	0.002503
2.426719	-0.001493	0.003155
2.427324	-0.001778	0.002456
2.427930	-0.001790	0.002822
2.428535	-0.002520	0.001886
2.429141	-0.002070	0.001819
2.429746	-0.002520	0.003606
2.430352	-0.002102	0.001739
2.430957	-0.001087	0.002119
2.431563	-0.000942	0.002474
2.432168	-0.000367	0.000858
2.432773	0.000443	0.000858
2.433379	0.000535	0.001047
2.433984	0.001251	-0.000104
2.434590	0.001378	0.000820
2.435195	0.001375	4.182249E-5
2.435801	0.001274	-0.000779
2.436406	0.000725	-0.000340
2.437012	-1.915205E-5	-0.000447
2.437617	-0.000385	-0.000933
2.438223	-0.000861	-0.001203
2.438828	-0.001123	-0.001534
2.439434	-0.000691	-0.000413
2.440039	-0.001147	-0.000989
2.440645	-0.000838	-0.001102
2.441250	-0.000266	-0.000396
2.441855	-0.000515	-0.000876
2.442461	-7.548342E-5	0.000213
2.443066	0.000149	0.000907
2.443672	-0.000462	0.001227
2.444277	-0.000208	0.002042
2.444883	-0.001219	0.002760
2.445488	-0.001289	0.002699
2.446094	-0.000892	0.003503
2.446699	-0.001185	0.003589
2.447305	-0.000726	0.002424
2.447910	-0.000168	0.002466
2.448516	-0.000311	0.002827
2.449121	0.000222	0.001897
2.449727	0.001046	0.002428
2.450332	0.001100	0.001337
2.450937	0.001868	0.000511
2.451543	0.001509	0.001196
2.452148	0.001111	0.000781
2.452754	0.001097	0.001012
2.453359	0.000340	0.001188
2.453965	0.000149	0.000106
2.454570	-0.000147	0.000183
2.455176	-0.000191	-0.000764
2.455781	-0.000589	-0.001328
2.456387	-0.000578	-0.001299
2.456992	-0.000536	-0.001703
2.457598	-0.000325	-0.001955
2.458203	-0.000194	-0.002067
2.458809	-6.633966E-6	-0.002627
2.459414	-5.795811E-5	-0.001915
2.460020	0.000870	-0.002658
2.460625	0.000987	-0.001939
2.461230	0.001439	-0.002102
2.461836	0.001603	-0.002151
2.462441	0.001626	-0.000912
2.463047	0.001912	-0.000729
2.463652	0.001138	-0.000869
2.464258	0.001081	0.000926
2.464863	0.000904	0.000505
2.465469	0.000600	0.000763
2.466074	-1.852614E-5	0.000946
2.466680	0.000195	-0.000128
2.467285	-0.000353	0.001400
2.467891	-0.000126	0.001250
2.468496	6.597092E-5	7.819572E-5
2.469102	0.000112	0.000290
2.469707	0.000145	-0.000894
2.470312	0.000227	-0.001182
2.470918	0.000344	-0.000508
2.471523	0.000425	-0.001364
2.472129	0.000601	-0.001050
2.472734	0.000938	-0.000673
2.473340	0.001236	-0.001048
2.473945	0.001276	-0.001628
2.474551	0.001316	-0.001335
2.475156	0.001196	-0.001421
2.475762	0.001437	-0.001943
2.476367	0.001126	-0.001703
2.476973	0.001084	-0.002248
2.477578	0.000814	-0.001554
2.478184	0.000825	-0.000940
2.478789	0.000686	-0.001430
2.479395	0.000994	-0.000799
2.480000	0.000770	-0.000798
2.480605	0.001000	-0.000653
2.481211	0.000999	-0.000215
2.481816	0.000371	0.000462
2.482422	0.000132	0.001513
2.483027	-1.101529E-5	0.001490
2.483633	0.000103	0.002426
2.484238	-0.000129	0.001790
2.484844	-7.360571E-5	0.001996
2.485449	-5.232497E-5	0.001485
2.486055	3.404981E-5	0.000796
2.486660	1.339497E-5	0.000269
2.487266	0.000669	0.000698
2.487871	0.000373	-0.000746
2.488477	0.000682	-0.000451
2.489082	0.000654	5.136301E-5
2.489688	0.000175	-0.000203
2.490293	0.000141	0.000859
2.490898	3.592752E-5	0.000411
2.491504	0.000133	0.000698
2.492109	-0.000129	0.001887
2.492715	6.158959E-5	0.000703
2.493320	-3.542556E-5	0.000671
2.493926	-7.986475E-5	0.000612
2.494531	-0.000288	0.000777
2.495137	0.000174	0.000226
2.495742	-0.000130	0.000198
2.496348	-0.000397	-0.000101
2.496953	0.000130	0.001063
2.497559	-0.000172	0.000557
2.498164	-0.000444	-0.001056
2.498770	0.000105	-0.000752
2.499375	-1.351891E-5	-0.000776
2.499980	-0.000214	-0.000324
2.500586	0.000637	-0.000715
2.501191	0.000390	4.301505E-5
2.501797	0.000705	0.000685
2.502402	0.000492	0.001305
2.503008	0.000337	0.001212
2.503613	-9.801597E-5	0.000908
2.504219	-0.000869	0.001909
2.504824	-0.001272	0.002322
2.505430	-0.001804	0.001357
2.506035	-0.002019	0.002324
2.506641	-0.002049	0.003005
2.507246	-0.001877	0.002977
2.507852	-0.001779	0.002692
2.508457	-0.001271	0.001367
2.509063	-0.000822	0.001716
2.509668	-0.000194	0.001509
2.510273	-0.000177	0.001333
2.510879	0.000554	0.000911
2.511484	0.000638	0.001212
2.512090	0.000199	0.001394
2.512695	0.000483	0.001262
2.513301	-0.000196	0.000650
2.513906	-0.000203	0.001378
2.514512	-0.000696	0.001242
2.515117	-0.001097	0.000940
2.515723	-0.001233	0.000310
2.516328	-0.001040	-7.445259E-5
2.516934	-0.001251	-0.000195
2.517539	-0.000231	-0.001567
2.518145	5.094922E-5	-0.001810
2.518750	0.000441	-0.002374
2.519355	0.000942	-0.001444
2.519961	0.000751	-0.001547
2.520566	0.001032	-0.001412
2.521172	0.001430	-0.000718
2.521777	0.000998	7.700315E-5
2.522383	0.000664	-0.000371
2.522988	0.000572	-0.000169
2.523594	0.000224	-0.000249
2.524199	6.033778E-5	-0.000175
2.524805	2.215763E-5	0.000640
2.525410	-0.000251	0.000655
2.526016	0.000420	3.884108E-5
2.526621	9.914384E-5	0.000286
2.527227	-0.000139	0.000765
2.527832	0.000235	0.000444
2.528437	-0.000387	0.000759
2.529043	-0.000536	0.000710
2.529648	-0.000521	0.000944
2.530254	-0.000778	0.001744
2.530859	-0.000812	0.001262
2.531465	-0.000382	0.001618
2.532070	-0.000457	0.002563
2.532676	0.000252	0.002084
2.533281	0.000791	0.001632
2.533887	0.000823	0.001055
2.534492	0.001064	0.000999
2.535098	0.001064	0.000985
2.535703	0.000937	-0.000665
2.536309	0.001128	-0.001398
2.536914	0.000913	-0.001391
2.537520	0.001324	-0.000431
2.538125	0.001619	-0.001904
2.538730	0.001059	-0.002180
2.539336	0.001755	-0.002208
2.539941	0.001886	-0.000989
2.540547	0.001355	-0.001644
2.541152	0.001419	-0.002727
2.541758	0.001414	-0.001480
2.542363	0.000366	-0.000636
2.542969	0.000402	-0.001271
2.543574	-0.000196	-0.001413
2.544180	-0.000534	-0.001776
2.544785	-0.000542	-0.000859
2.545391	-0.000875	-0.001203
2.545996	-0.001168	-0.002105
2.546602	-0.000724	-0.001785
2.547207	5.032331E-5	-0.001061
2.547813	0.000195	-0.000856
2.548418	0.000808	-0.002465
2.549023	0.000846	-0.001827
2.549629	0.001146	0.001265
2.550234	0.001464	-0.000101
2.550840	0.001118	0.000926
2.551445	0.001055	0.000761
2.552051	0.001098	0.001835
2.552656	0.000547	0.003268
2.553262	5.094922E-5	0.001318
2.553867	-9.613826E-5	0.000886
2.554473	-0.000306	0.002174
2.555078	-0.000727	0.001463
2.555684	-0.001224	0.000388
2.556289	-0.000795	-9.174478E-5
2.556895	-0.000695	0.000720
2.557500	-0.000361	-0.000275
2.558105	-0.000234	-0.000676
2.558711	0.000127	-0.000546
2.559316	2.591305E-5	-0.001000
2.559922	0.000455	0.000124
2.560527	0.000184	-5.537155E-5
2.561133	0.000518	-0.001299
2.561738	0.000542	-0.000382
2.562344	0.000256	-0.000218
2.562949	0.000534	-0.001473
2.563555	0.000249	-0.000180
2.564160	0.000457	0.000686
2.564766	-9.238284E-5	0.000111
2.565371	8.099262E-5	0.000370
2.565977	-0.000203	-0.000900
2.566582	-0.000333	-0.000315
2.567188	-0.000333	0.000428
2.567793	-0.000437	0.000538
2.568398	-0.000490	0.000353
2.569004	-0.000387	0.001922
2.569609	-0.000101	0.001468
2.570215	-0.000225	0.001658
2.570820	-0.000121	0.002380
2.571426	4.656789E-5	0.002614
2.572031	-0.000271	0.002204
2.572637	-0.000487	0.002542
2.573242	-0.000193	0.002102
2.573848	-0.000147	0.002126
2.574453	-0.000176	0.002336
2.575059	0.000343	0.000824
2.575664	0.000631	0.000617
2.576270	0.000325	-0.000349
2.576875	0.001323	-0.000246
2.577480	0.001436	-0.001077
2.578086	0.001510	-0.000662
2.578691	0.001551	-0.000249
2.579297	0.001169	-4.091259E-6
2.579902	0.000198	7.044404E-5
2.580508	0.000145	0.000535
2.581113	-0.000772	0.000693
2.581719	-0.001228	-0.000264
2.582324	-0.001246	0.000218
2.582930	-0.001633	-0.000342
2.583535	-0.001345	0.000134
2.584141	-0.001225	-0.001268
2.584746	-0.000582	-0.001210
2.585352	-0.000326	-0.001540
2.585957	0.000617	-0.001993
2.586562	0.000369	-0.002168
2.587168	0.001009	-0.002464
2.587773	0.000724	-0.002015
2.588379	0.000708	-0.001381
2.588984	0.000112	-0.000774
2.589590	-0.000195	-0.000329
2.590195	-0.000460	0.001568
2.590801	-0.000823	0.000833
2.591406	-0.000623	0.001546
2.592012	-0.000683	0.001760
2.592617	4.218656E-5	0.002434
2.593223	0.000105	0.001537
2.593828	0.000328	0.001376
2.594434	0.000206	0.000481
2.595039	0.000379	0.000992
2.595645	3.404981E-5	-0.000147
2.596250	0.000112	-0.000733
2.596855	0.000229	0.000126
2.597461	0.000585	-0.000241
2.598066	0.000751	-5.000501E-5
2.598672	0.000622	-0.001063
2.599277	0.001265	-0.001054
2.599883	0.001197	-0.001263
2.600488	0.001106	-0.001114
2.601094	0.001107	-0.001818
2.601699	0.000729	-0.001553
2.602305	0.000314	-0.001345
2.602910	6.158959E-5	-0.001408
2.603516	-0.000526	-0.001698
2.604121	-0.000807	-0.000788
2.604727	-0.001004	-0.001543
2.605332	-0.001059	-0.001630
2.605938	-0.001270	-0.000419
2.606543	-0.000684	-0.000484
2.607148	-0.000226	0.000619
2.607754	9.163299E-5	0.000217
2.608359	0.000701	0.001160
2.608965	0.001026	0.002648
2.609570	0.001097	0.002299
2.610176	0.001474	0.002769
2.610781	0.001195	0.002369
2.611387	0.001625	0.003759
2.611992	0.001144	0.004432
2.612598	0.001351	0.003076
2.613203	0.001064	0.002544
2.613809	0.001024	0.002565
2.614414	0.001276	0.001512
2.615020	0.001256	0.001478
2.615625	0.001419	6.448122E-5
2.616230	0.001323	0.000776
2.616836	0.001217	0.000502
2.617441	0.000949	7.163661E-5
2.618047	0.000384	-0.000528
2.618652	0.000415	-0.001100
2.619258	-0.000259	-0.000432
2.619863	-0.001010	-0.000870
2.620469	-0.000877	-0.000972
2.621074	-0.001311	-0.000946
2.621680	-0.001304	-0.000791
2.622285	-0.000619	-0.000897
2.622891	-0.000576	-0.000378
2.623496	9.225889E-5	-0.002222
2.624102	-9.300874E-5	-0.002105
2.624707	0.000892	-0.002118
2.625313	0.000950	-0.002916
2.625918	0.001416	-0.002829
2.626523	0.001760	-0.002749
2.627129	0.001682	-0.001420
2.627734	0.001351	-0.001077
2.628340	0.001438	-0.000923
2.628945	0.001267	-0.000907
2.629551	0.000967	0.000545
2.630156	0.000703	0.001576
2.630762	0.000280	0.001200
2.631367	-0.000149	0.001640
2.631973	-0.000541	0.002304
2.632578	-0.000594	0.002411
2.633184	-0.000750	0.001752
2.633789	-0.000477	0.000544
2.634395	-0.000121	0.001422
2.635000	9.538841E-5	0.001103
2.635605	0.000785	-0.000828
2.636211	0.001168	-0.000425
2.636816	0.001596	-0.001710
2.637422	0.002067	-0.001055
2.638027	0.001997	-0.001664
2.638633	0.001840	-0.001740
2.639238	0.001127	-0.000979
2.639844	0.000281	-0.000554
2.640449	-0.000178	-0.001090
2.641055	-0.000875	-0.000670
2.641660	-0.001240	-0.000745
2.642266	-0.001055	-0.000251
2.642871	-0.001067	-0.001077
2.643477	-0.000717	-0.001822
2.644082	-0.000166	-0.001854
2.644687	7.848900E-5	-0.001836
2.645293	0.000816	-0.001968
2.645898	0.000925	-0.001726
2.646504	0.001028	-0.000665
2.647109	0.001119	-0.000548
2.647715	0.001023	0.001070
2.648320	0.000882	0.000410
2.648926	0.000800	0.001986
2.649531	0.000629	0.002177
2.650137	0.000367	0.001429
2.650742	0.000364	0.002263
2.651348	-0.000245	0.002694
2.651953	6.659682E-5	0.001928
2.652559	0.000167	0.002456
2.653164	2.128693E-6	0.001841
2.653770	0.000168	0.001646
2.654375	-0.000102	0.002788
2.654980	1.840220E-5	0.000962
2.655586	-0.000219	0.000954
2.656191	-0.000440	0.000276
2.656797	-0.000506	0.001219
2.657402	-0.000627	0.000934
2.658008	-0.001019	-9.055221E-5
2.658613	-0.000733	0.000716
2.659219	-0.001002	0.000801
2.659824	-0.000607	-0.000298
2.660430	-0.000512	-0.000275
2.661035	-0.000497	-0.000240
2.661641	-0.000216	-0.000181
2.662246	-0.000542	-8.518567E-5
2.662852	-6.797257E-5	-0.001023
2.663457	0.000246	-0.001280
2.664062	0.000262	0.000406
2.664668	0.000741	-0.000631
2.665273	0.000990	-0.000727
2.665879	0.000550	0.000899
2.666484	0.000304	0.000320
2.667090	-0.000236	0.001815
2.667695	-0.000443	0.001195
2.668301	-0.000743	0.001213
2.668906	-0.000947	0.003320
2.669512	-0.001323	0.002843
2.670117	-0.001245	0.001945
2.670723	-0.001452	0.002535
2.671328	-0.001699	0.002233
2.671934	-0.001884	0.001708
2.672539	-0.002354	0.001197
2.673145	-0.001605	-0.000315
2.673750	-0.001350	-0.000113
2.674355	-0.001088	-0.000452
2.674961	-0.000484	-0.000481
2.675566	-1.915205E-5	-0.000568
2.676172	-0.000405	-0.000188
2.676777	9.664022E-5	-0.000334
2.677383	-0.000731	-0.000726
2.677988	-0.000314	0.000200
2.678594	-0.000241	4.062992E-5
2.679199	-0.000561	0.000705
2.679805	0.000388	0.001082
2.680410	0.000157	0.001832
2.681016	0.000376	0.002047
2.681621	0.000204	0.001539
2.682227	0.000332	0.001296
2.682832	-6.609486E-5	0.001765
2.683438	-1.790024E-5	0.001407
2.684043	-0.000171	0.001550
2.684648	-0.000263	0.001413
2.685254	0.000134	0.000962
2.685859	0.000380	3.705223E-5
2.686465	0.000396	-0.000250
2.687070	0.000551	-0.000695
2.687676	0.000681	-0.000853
2.688281	0.001011	-0.000934
2.688887	0.000690	-0.001154
2.689492	0.000792	-0.000374
2.690098	0.001170	-0.000423
2.690703	0.000305	6.448122E-5
2.691309	-0.000171	-0.000848
2.691914	-0.000401	-0.000311
2.692520	-0.001326	-6.848976E-5
2.693125	-0.001679	-0.000228
2.693730	-0.001601	0.000390
2.694336	-0.001873	0.001473
2.694941	-0.001865	0.000717
2.695547	-0.001205	0.001513
2.696152	-0.001103	0.001686
2.696758	-0.000681	0.001149
2.697363	0.000157	0.001429
2.697969	0.000917	0.000586
2.698574	0.000870	0.001663
2.699180	0.000978	0.001789
2.699785	0.001993	0.001178
2.700391	0.001884	0.000477
2.700996	0.001801	-0.000269
2.701602	0.002041	0.000482
2.702207	0.001447	0.000297
2.702812	0.000812	-0.001398
2.703418	0.000906	-0.001631
2.704023	0.000831	-0.001330
2.704629	0.000398	-0.001472
2.705234	0.000862	-0.001873
2.705840	0.000935	-0.001755
2.706445	0.000682	-0.000974
2.707051	0.000784	-0.001797
2.707656	0.000672	-0.002056
2.708262	0.000483	-0.002652
2.708867	0.000205	-0.002563
2.709473	0.000140	-0.001947
2.710078	0.000103	-0.002612
2.710684	3.843113E-5	-0.002214
2.711289	0.000385	-0.001686
2.711895	0.000343	-0.001578
2.712500	0.000427	-0.002262
2.713105	0.000402	-0.001417
2.713711	0.000264	-0.000959
2.714316	0.000230	0.000166
2.714922	0.000271	0.000393
2.715527	0.000518	0.000524
2.716133	0.000712	0.001639
2.716738	0.000756	0.001181
2.717344	0.000769	0.000169
2.717949	0.000702	0.000838
2.718555	0.000543	0.000923
2.719160	0.000400	0.000995
2.719766	-8.737560E-5	0.000681
2.720371	0.000170	0.000840
2.720977	-0.000357	0.002013
2.721582	-0.000437	0.000991
2.722187	-0.000527	0.000968
2.722793	-0.000667	0.000112
2.723398	-0.000767	0.001045
2.724004	-0.000887	0.000934
2.724609	-0.000908	0.000186
2.725215	-0.000619	-0.000615
2.725820	-0.000160	7.282917E-5
2.726426	0.000470	-0.000330
2.727031	0.000713	-0.001846
2.727637	0.001000	-0.001688
2.728242	0.000898	-0.001504
2.728848	0.000366	-0.000997
2.729453	5.407874E-5	-0.002130
2.730059	-0.000400	-0.001311
2.730664	-0.000734	-0.000887
2.731270	-0.001462	0.000364
2.731875	-0.001176	0.000252
2.732480	-0.001819	0.000554
2.733086	-0.001657	0.001057
2.733691	-0.001509	0.001512
2.734297	-0.001528	0.002559
2.734902	-0.001197	0.001736
2.735508	-0.000623	0.002580
2.736113	-0.000432	0.003218
2.736719	-0.000346	0.003555
2.737324	0.000204	0.004045
2.737930	0.000204	0.004811
2.738535	0.000183	0.003342
2.739141	-6.734667E-5	0.003497
2.739746	-0.000224	0.003577
2.740352	-0.000126	0.003027
2.740957	-0.000276	0.002609
2.741563	-0.000254	0.001579
2.742168	-3.749239E-7	0.001527
2.742773	-0.000723	0.002587
2.743379	-0.000915	0.001459
2.743984	-0.000976	0.001196
2.744590	-0.001759	0.000933
2.745195	-0.001555	0.000451
2.745801	-0.001717	0.000562
2.746406	-0.001868	0.000341
2.747012	-0.001249	-0.000542
2.747617	-0.001004	0.000776
2.748223	-0.000838	-0.000188
2.748828	-0.000348	-0.000187
2.749434	-0.000444	0.000307
2.750039	-0.000158	-0.000452
2.750645	-4.418822E-5	-0.000163
2.751250	-0.000120	-0.000819
2.751855	-2.102976E-5	-0.000393
2.752461	2.716486E-5	-0.000128
2.753066	-0.000295	0.000379
2.753672	0.000447	0.000893
2.754277	0.000293	0.001502
2.754883	0.000507	0.002293
2.755488	0.000668	0.002756
2.756094	0.000796	0.002686
2.756699	0.000908	0.002642
2.757305	0.000631	0.001796
2.757910	0.000992	0.001769
2.758516	0.000780	0.001549
2.759121	0.000828	-0.000238
2.759727	0.000350	-0.001089
2.760332	-1.477072E-5	-0.001962
2.760937	-0.000435	-0.001324
2.761543	-0.000673	-0.002912
2.762148	-0.000847	-0.002401
2.762754	-0.000764	-0.002783
2.763359	-0.000562	-0.001432
2.763965	8.349623E-5	-0.001937
2.764570	0.000743	-0.002083
2.765176	0.000719	-0.002430
2.765781	0.001695	-0.001117
2.766387	0.001350	-0.000983
2.766992	0.000835	-0.001260
2.767598	0.000696	-0.001226
2.768203	0.000308	-0.000712
2.768809	-0.000269	-0.000783
2.769414	0.000149	-0.001742
2.770020	0.000398	-0.001646
2.770625	0.000776	-0.002016
2.771230	0.001504	-0.001283
2.771836	0.002556	-0.001692
2.772441	0.002825	-0.000775
2.773047	0.003610	0.000313
2.773652	0.003371	0.000160
2.774258	0.003253	4.838159E-5
2.774863	0.002543	-7.147117E-5
2.775469	0.001897	0.000174
2.776074	0.001393	0.000945
2.776680	-6.633966E-6	-0.000714
2.777285	0.000247	-0.001096
2.777891	-0.000190	-0.000745
2.778496	-0.000632	-0.001091
2.779102	-0.000479	-0.002003
2.779707	-0.000834	-0.002316
2.780312	-0.000854	-0.002402
2.780918	-0.000454	-0.002209
2.781523	-0.000282	-0.001952
2.782129	-0.000172	-0.001582
2.782734	-0.000261	-0.000631
2.783340	0.000279	0.000303
2.783945	0.000628	-0.000101
2.784551	0.000804	0.000698
2.785156	0.001328	0.002899
2.785762	0.001379	0.002538
2.786367	0.001250	0.001795
2.786973	0.001518	0.001457
2.787578	0.002213	0.001997
2.788184	0.001295	0.003121
2.788789	0.001608	0.000172
2.789395	0.001623	8.475482E-5
2.790000	0.000829	0.000993
2.790605	0.000442	0.000754
2.791211	-3.504445E-6	0.000685
2.791816	-0.000447	-0.000770
2.792422	-0.000324	-0.000376
2.793027	5.032331E-5	0.001194
2.793633	8.412214E-5	0.000723
2.794238	0.000160	-0.000441
2.794844	0.000233	0.000644
2.795449	0.000304	0.000655
2.796055	-0.000565	0.000338
2.796660	-0.000823	4.122621E-5
2.797266	-0.001195	-0.000129
2.797871	-0.001923	0.000416
2.798477	-0.002072	-0.000525
2.799082	-0.001314	-0.001221
2.799688	-0.001560	-0.001023
2.800293	-0.000877	-0.000567
2.800898	-0.000172	-5.537155E-5
2.801504	0.000700	-0.000819
2.802109	0.000795	-0.000467
2.802715	0.001322	0.000712
2.803320	0.001038	0.001705
2.803926	0.001154	0.002438
2.804531	0.000764	0.003112
2.805137	-0.000256	0.003004
2.805742	-0.001514	0.004332
2.806348	-0.001596	0.003962
2.806953	-0.002329	0.003525
2.807559	-0.002143	0.002733
2.808164	-0.001917	0.002221
2.808770	-0.001926	0.002377
2.809375	-0.001575	0.001716
2.809980	-0.001655	0.000583
2.810586	-0.001582	-0.000476
2.811191	-0.001726	0.000390
2.811797	-0.001151	0.000936
2.812402	-0.001028	-0.000245
2.813008	-0.000105	-0.000711
2.813613	-0.000281	0.000440
2.814219	0.000430	0.000745
2.814824	0.000360	0.000714
2.815430	0.000665	-0.000243
2.816035	0.001065	6.149981E-5
2.816641	0.001405	0.000751
2.817246	0.001156	0.000475
2.817852	0.000690	-0.000302
2.818457	7.097815E-5	-0.000451
2.819062	-8.612380E-5	-5.119757E-5
2.819668	-6.797257E-5	7.461802E-5
2.820273	-0.001141	0.000183
2.820879	-0.000678	-0.000633
2.821484	-0.000176	0.001515
2.822090	0.000281	0.001013
2.822695	0.000381	0.000923
2.823301	0.000321	0.000931
2.823906	0.000749	0.001568
2.824512	0.001277	0.001102
2.825117	0.001153	0.001330
2.825723	0.000817	-0.000203
2.826328	0.000694	-0.000522
2.826934	0.000780	0.000234
2.827539	0.000161	-0.000540
2.828145	-9.363465E-5	-0.001518
2.828750	-0.000417	-0.002070
2.829355	-0.000336	-0.001257
2.829961	-0.000149	-0.000947
2.830566	0.000234	-0.000462
2.831172	0.000741	-0.001495
2.831777	0.000762	-0.001087
2.832383	0.001614	-0.001029
2.832988	0.001414	0.000412
2.833594	0.001710	-0.000574
2.834199	0.001704	-0.000353
2.834805	0.001967	-0.000210
2.835410	0.001708	0.000462
2.836016	0.002044	-0.000428
2.836621	0.001123	-0.001411
2.837227	0.000890	-0.002987
2.837832	0.000352	-0.002381
2.838437	0.000470	-0.002290
2.839043	0.000611	-0.002971
2.839648	0.000552	-0.002775
2.840254	0.001020	-0.002470
2.840859	0.000907	-0.001462
2.841465	0.000703	-0.002018
2.842070	0.000565	-0.001814
2.842676	0.000577	-0.001725
2.843281	0.000159	-0.000624
2.843887	0.000481	-0.000120
2.844492	-0.000208	-0.000354
2.845098	0.000149	-0.000989
2.845703	2.153172E-5	-0.000484
2.846309	-0.000147	-0.000421
2.846914	-0.000393	-0.000961
2.847520	-0.000748	-0.001044
2.848125	-0.000932	-0.001454
2.848730	-0.000870	-0.000469
2.849336	-0.000579	-0.000326
2.849941	-0.000782	-0.000399
2.850547	-0.000270	-0.000337
2.851152	-0.000243	0.000430
2.851758	-0.000132	-0.000290
2.852363	9.726613E-5	0.000326
2.852969	0.000249	0.001469
2.853574	0.000260	0.001252
2.854180	0.000547	0.001502
2.854785	5.470464E-5	0.002405
2.855391	-0.000455	0.001452
2.855996	-0.000358	0.002109
2.856602	-0.000614	0.001692
2.857207	-0.000183	0.000720
2.857813	-0.000610	0.001432
2.858418	-0.000227	0.001388
2.859023	0.000229	0.000757
2.859629	-4.669183E-5	0.000517
2.860234	0.000437	0.001771
2.860840	0.000363	0.001914
2.861445	0.000307	0.002229
2.862051	0.000421	0.001499
2.862656	0.000402	0.002839
2.863262	-1.915205E-5	0.003198
2.863867	-0.000183	0.002939
2.864473	-0.000436	0.002341
2.865078	-0.001141	0.002394
2.865684	-0.001081	0.002611
2.866289	-0.000900	0.001899
2.866895	-0.000741	0.000438
2.867500	-0.000537	0.001237
2.868105	-0.000490	0.001146
2.868711	-0.000678	-0.000442
2.869316	0.000265	0.000343
2.869922	-0.000158	-0.000362
2.870527	-0.000305	0.000634
2.871133	0.000110	0.001299
2.871738	-0.000582	0.000940
2.872344	-0.000297	0.002066
2.872949	-0.000534	0.003305
2.873555	-0.000586	0.002249
2.874160	-0.000534	0.002122
2.874766	-7.673523E-5	0.001109
2.875371	0.000264	0.001139
2.875977	0.000861	0.001252
2.876582	0.001010	-0.000112
2.877187	0.001044	-0.000755
2.877793	0.000913	-0.001929
2.878398	0.000292	-0.002957
2.879004	0.000500	-0.001166
2.879609	-5.382157E-6	-0.001970
2.880215	-0.000215	-0.002676
2.880820	5.884118E-6	-0.001574
2.881426	0.000130	-0.002042
2.882031	-0.000108	-0.000815
2.882637	4.006405E-6	-0.001068
2.883242	-0.000428	-0.001656
2.883848	-4.418822E-5	-0.000992
2.884453	-0.000245	-0.001557
2.885059	-0.000343	-0.002527
2.885664	-0.000402	-0.001922
2.886270	0.000103	-0.002667
2.886875	0.000114	-0.002141
2.887480	0.000191	-0.002411
2.888086	0.000416	-0.003200
2.888691	0.000786	-0.001489
2.889297	0.001168	-0.001749
2.889902	0.001305	-0.000808
2.890508	0.001080	0.000842
2.891113	0.001074	0.001328
2.891719	0.001069	0.002023
2.892324	0.000345	0.002758
2.892930	0.000360	0.002425
2.893535	-0.000125	0.003305
2.894141	0.000198	0.002814
2.894746	-7.259870E-6	0.002320
2.895352	0.000495	0.001788
2.895957	0.000546	0.000599
2.896562	0.000892	-0.000603
2.897168	0.000508	-0.000885
2.897773	0.000965	-0.001498
2.898379	0.000952	-0.001678
2.898984	0.001377	-0.002275
2.899590	0.001267	-0.002847
2.900195	0.001266	-0.002255
2.900801	0.000500	-0.002498
2.901406	0.000617	-0.002686
2.902012	0.000885	-0.001907
2.902617	2.403534E-5	-0.000578
2.903223	0.000607	-0.001154
2.903828	2.215763E-5	-0.000837
2.904434	-0.000191	-0.000825
2.905039	-0.000706	-0.000368
2.905645	-0.000670	0.001077
2.906250	-0.001481	0.000501
2.906855	-0.001160	0.000225
2.907461	-0.001781	0.000785
2.908066	-0.001545	0.001612
2.908672	-0.001061	0.002020
2.909277	-0.000629	0.001747
2.909883	-0.000298	0.001951
2.910488	0.000216	0.003724
2.911094	0.000437	0.003636
2.911699	8.349623E-5	0.003498
2.912305	0.000366	0.003887
2.912910	5.720826E-5	0.004332
2.913516	0.000311	0.004670
2.914121	-0.000191	0.003495
2.914727	0.000534	0.003206
2.915332	-0.000116	0.002995
2.915938	0.000557	0.001718
2.916543	0.000740	0.002057
2.917148	0.001046	0.001068
2.917754	0.000879	0.000338
2.918359	0.001422	0.000130
2.918965	0.000736	-0.000379
2.919570	0.000196	-0.000769
2.920176	5.658236E-5	-7.266374E-5
2.920781	3.592752E-5	0.000118
2.921387	-0.000531	-0.000581
2.921992	-0.000556	-0.000477
2.922598	-0.000519	0.000527
2.923203	-0.001594	-0.000643
2.923809	-0.000691	-5.656411E-5
2.924414	-0.001191	-0.000717
2.925020	-0.000948	-0.001430
2.925625	-0.000323	-0.002294
2.926230	0.000400	-0.002485
2.926836	0.000530	-0.002762
2.927441	0.000896	-0.002753
2.928047	0.000850	-0.001776
2.928652	0.000947	-0.001697
2.929258	0.000708	-0.001601
2.929863	0.000370	-0.000260
2.930469	0.000129	2.214517E-5
2.931074	-0.000519	0.001012
2.931680	-0.000500	0.001618
2.932285	-0.000723	0.001711
2.932891	-0.001068	0.002329
2.933496	-0.000546	0.001900
2.934102	-0.000280	0.001854
2.934707	-0.000569	0.001226
2.935312	0.000811	0.001339
2.935918	0.000794	0.001346
2.936523	0.000641	-0.000422
2.937129	0.000657	-0.000790
2.937734	0.000687	-0.000748
2.938340	0.000250	-0.000641
2.938945	0.000783	-0.001315
2.939551	0.000570	-0.001180
2.940156	0.000293	-0.002284
2.940762	0.000749	-0.000289
2.941367	0.000820	-0.001538
2.941973	0.000565	-0.002326
2.942578	0.000447	-0.001726
2.943184	0.000826	-0.001206
2.943789	0.000308	-0.001350
2.944395	-3.479965E-5	-0.001927
2.945000	-0.000169	-0.001362
2.945605	-0.000138	-0.000824
2.946211	-0.000199	-0.000764
2.946816	-0.000126	-0.001280
2.947422	0.000101	-0.000361
2.948027	0.000154	-0.000373
2.948633	0.000287	0.001396
2.949238	0.000868	0.000970
2.949844	0.000611	0.001475
2.950449	0.000842	0.003256
2.951055	0.001208	0.001781
2.951660	0.000333	0.002499
2.952266	0.000157	0.002312
2.952871	0.000364	0.001672
2.953477	-0.000358	0.002305
2.954082	-0.000475	0.001853
2.954687	-0.000338	0.001203
2.955293	-0.000424	0.002098
2.955898	0.000121	0.000564
2.956504	0.000418	0.000468
2.957109	0.000176	0.000454
2.957715	-0.000113	0.000890
2.958320	0.000194	0.000203
2.958926	0.000292	0.000957
2.959531	0.000390	8.833252E-5
2.960137	0.000165	0.000596
2.960742	0.000539	0.000642
2.961348	0.000557	-0.000214
2.961953	0.000590	0.000533
2.962559	0.000839	-0.000108
2.963164	0.000938	-0.000421
2.963770	0.000669	-0.000442
2.964375	0.000624	-0.000634
2.964980	0.000534	-0.000160
2.965586	0.000276	-0.000914
2.966191	0.000347	-0.000909
2.966797	0.000271	-0.000750
2.967402	-3.504445E-6	-0.000894
2.968008	0.000152	-0.000783
2.968613	0.000339	0.000144
2.969219	0.000172	0.000316
2.969824	0.000442	0.001599
2.970430	0.000770	0.000911
2.971035	0.000837	0.000603
2.971641	0.000650	0.001194
2.972246	0.000284	0.001404
2.972852	0.000143	0.000772
2.973457	-0.000242	0.000387
2.974063	-0.000394	3.064130E-6
2.974668	-0.000362	-0.000283
2.975273	7.535948E-5	-0.000714
2.975879	-0.000111	-0.000859
2.976484	0.000632	-0.000333
2.977090	0.000427	-0.000356
2.977695	0.000317	-0.000292
2.978301	0.000388	-0.001130
2.978906	-7.047619E-5	-0.000339
2.979512	-0.000467	0.000369
2.980117	-0.000260	0.000324
2.980723	-0.000905	0.000203
2.981328	-0.000877	0.000537
2.981934	-0.000535	0.000849
2.982539	-0.001135	-0.000715
2.983145	-0.000606	-0.002116
2.983750	-0.000778	-0.001728
2.984355	-0.000362	-0.002309
2.984961	0.000428	-0.003266
2.985566	0.000898	-0.003333
2.986172	0.001158	-0.004295
2.986777	0.001864	-0.003302
2.987383	0.001110	-0.001802
2.987988	0.001494	-0.001287
2.988594	0.001078	-0.001075
2.989199	0.000586	-5.596783E-5
2.989805	0.000628	0.000944
2.990410	0.000140	0.001870
2.991016	8.387734E-6	0.002388
2.991621	-0.000143	0.002284
2.992227	0.000253	0.002109
2.992832	-0.000430	0.001965
2.993438	-0.000609	0.003005
2.994043	-0.000941	0.001504
2.994648	-0.001067	0.002241
2.995254	-0.001101	0.002348
2.995859	-0.000713	0.001941
2.996465	-0.000610	0.002067
2.997070	-0.000496	0.002111
2.997676	-0.000167	0.001908
2.998281	-7.885774E-6	0.002428
2.998887	-6.985029E-5	0.002071
2.999492	8.725166E-5	0.002408
3.000098	0.000584	0.002561
3.000703	0.000179	0.001061
3.001309	0.000480	0.001094
3.001914	0.000480	0.000481
3.002520	-5.044726E-5	0.000546
3.003125	-0.000168	0.000348
3.003730	-0.000116	-0.001522
3.004336	-0.000724	-0.001742
3.004941	-0.000791	-0.001069
3.005547	-0.000565	-0.000929
3.006152	-0.000537	-0.001041
3.006758	-0.000487	-0.000589
3.007363	0.000179	0.000395
3.007969	0.000157	0.001636
3.008574	0.000267	0.000477
3.009180	0.000289	0.001242
3.009785	2.966848E-5	0.001480
3.010391	5.908597E-5	0.001083
3.010996	-3.292194E-5	0.001637
3.011602	-0.000303	0.000998
3.012207	-0.000113	0.000212
3.012812	-0.000123	0.000927
3.013418	-0.000191	-0.000944
3.014023	0.000143	-0.000841
3.014629	-0.000151	-0.000564
3.015234	0.000534	-0.001350
3.015840	0.000203	-0.000516
3.016445	0.000122	-0.000542
3.017051	0.000188	0.000817
3.017656	-0.000410	0.001845
3.018262	-0.000201	0.001168
3.018867	-0.000528	0.001184
3.019473	-0.000804	0.001758
3.020078	-0.000479	0.001493
3.020684	-0.000389	0.002286
3.021289	-0.000502	0.000592
3.021895	0.000400	0.000218
3.022500	0.000304	0.001453
3.023105	0.000804	-0.000404
3.023711	0.001032	-0.001218
3.024316	0.001052	-0.001437
3.024922	0.001324	-0.001906
3.025527	0.001324	-0.002674
3.026133	0.001315	-0.001510
3.026738	0.001348	-0.002485
3.027344	0.001615	-0.001399
3.027949	0.001156	-0.000650
3.028555	0.001200	-0.000583
3.029160	0.000776	-0.000525
3.029766	0.000396	-0.000489
3.030371	0.000256	-0.000596
3.030977	0.000147	-0.000445
3.031582	-0.000236	-0.000359
3.032188	-0.000344	-0.001354
3.032793	5.407874E-5	-0.001662
3.033398	4.907151E-5	-0.001733
3.034004	0.000494	-0.002292
3.034609	0.000602	-0.002030
3.035215	0.000827	-0.001428
3.035820	0.000928	-0.001875
3.036426	0.000948	0.000148
3.037031	0.000560	0.000441
3.037637	0.001067	0.001348
3.038242	0.000588	0.001946
3.038848	0.000621	0.002491
3.039453	-9.989369E-5	0.002349
3.040059	-0.000402	0.002878
3.040664	-0.000326	0.002765
3.041270	-0.000597	0.002027
3.041875	-0.000577	0.001419
3.042480	-0.000257	0.000947
3.043086	6.722273E-5	0.001065
3.043691	-4.544002E-5	-0.000673
3.044297	0.000412	-0.000383
3.044902	0.000210	-0.000713
3.045508	0.000643	-0.000716
3.046113	0.001129	-0.000565
3.046719	0.000559	-0.000389
3.047324	0.001008	0.000602
3.047930	0.000945	0.001317
3.048535	0.000859	5.255557E-5
3.049141	0.000925	0.000187
3.049746	0.000878	-1.661319E-5
3.050352	0.001222	-0.000250
3.050957	0.001758	-0.000541
3.051563	0.001598	-0.001082
3.052168	0.001686	-0.001405
3.052773	0.001810	-0.001650
3.053379	0.001117	-0.001780
3.053984	0.000435	-0.002482
3.054590	0.000387	-0.000766
3.055195	-0.000410	-0.000352
3.055801	-0.000283	-0.000341
3.056406	-0.000491	0.000359
3.057012	-0.000673	0.001345
3.057617	-0.000504	0.002365
3.058223	-0.000235	0.002159
3.058828	-0.000125	0.001920
3.059434	-0.000249	0.002368
3.060039	-0.000464	0.001491
3.060645	6.221549E-5	0.001057
3.061250	-0.000350	0.001076
3.061855	-0.000103	-0.000393
3.062461	0.000321	0.000645
3.063066	0.000395	-0.001271
3.063672	0.000684	-0.001008
3.064277	0.000731	-0.001075
3.064883	0.000764	-0.001090
3.065488	0.000704	-0.001564
3.066094	0.000657	-0.000714
3.066699	0.000434	-0.000380
3.067305	0.000381	0.000429
3.067910	-7.172800E-5	-0.000171
3.068516	-0.000273	-0.000450
3.069121	-0.001036	0.001228
3.069727	-0.000961	0.000660
3.070332	-0.001074	-0.000492
3.070937	-0.000905	-0.001210
3.071543	-0.000725	-0.001512
3.072148	-0.000323	-0.000953
3.072754	3.717933E-5	-0.001537
3.073359	0.000781	-0.003176
3.073965	0.001183	-0.001581
3.074570	0.001335	-0.000917
3.075176	0.001767	-0.001380
3.075781	0.001361	-0.000452
3.076387	0.001059	-0.000231
3.076992	0.000376	0.001338
3.077598	-0.000155	0.001779
3.078203	-0.000637	0.001932
3.078809	-0.001240	0.003035
3.079414	-0.001218	0.003820
3.080020	-0.001541	0.003064
3.080625	-0.001228	0.002882
3.081230	-0.000999	0.003049
3.081836	-0.001003	0.003400
3.082441	-0.000369	0.002003
3.083047	-0.000428	0.001261
3.083652	-0.000173	0.000943
3.084258	0.000179	0.002142
3.084863	0.000529	0.001579
3.085469	0.000957	0.000451
3.086074	0.000706	-3.330910E-5
3.086680	0.000774	0.002329
3.087285	0.000408	0.001759
3.087891	-6.359125E-5	0.000569
3.088496	-0.000419	0.001037
3.089102	-0.000887	0.001271
3.089707	-0.001640	0.001955
3.090313	-0.001345	0.001652
3.090918	-0.001750	0.000231
3.091523	-0.001438	-0.000906
3.092129	-0.000830	-5.894924E-5
3.092734	-0.000474	-0.000184
3.093340	0.000363	-0.001930
3.093945	0.000748	-0.001448
3.094551	0.001113	-0.000543
3.095156	0.001117	-0.000157
3.095762	0.000868	0.001148
3.096367	0.000478	0.000239
3.096973	0.000533	0.000912
3.097578	-0.000310	0.002243
3.098184	-0.000509	0.001432
3.098789	-0.000389	0.002057
3.099395	-0.000828	0.002057
3.100000	-0.000132	0.001788
3.100605	0.000192	0.001625
3.101211	0.000124	0.000465
3.101816	0.000798	-0.000680
3.102422	0.000925	-0.000112
3.103027	0.000353	-0.000401
3.103633	0.000776	-0.000677
3.104238	-2.791471E-5	-7.862656E-5
3.104844	-0.000114	0.000619
3.105449	-0.000412	0.000202
3.106055	-0.001085	0.001261
3.106660	-0.001416	0.000579
3.107266	-0.002093	0.001288
3.107871	-0.002212	0.001311
3.108477	-0.001734	0.000913
3.109082	-0.001500	0.000866
3.109688	-0.001094	0.000165
3.110293	0.000109	-0.000477
3.110898	0.000681	-0.001448
3.111504	0.001126	-0.002235
3.112109	0.001930	-0.002717
3.112715	0.002108	-0.003454
3.113320	0.001652	-0.003165
3.113926	0.002426	-0.002333
3.114531	0.001303	-0.002624
3.115137	0.001032	-0.001260
3.115742	0.001104	-0.000810
3.116348	0.000216	-0.000269
3.116953	-0.000244	-0.000134
3.117559	-0.000593	0.000199
3.118164	-0.000967	0.000655
3.118770	-0.001387	0.000193
3.119375	-0.001365	0.000747
3.119980	-0.001439	0.000571
3.120586	-0.000968	0.000108
3.121191	-0.001037	0.000397
3.121797	-0.000348	0.000505
3.122402	2.966848E-5	0.000370
3.123008	0.000528	0.000558
3.123613	0.000796	-0.000323
3.124219	0.001437	-0.000294
3.124824	0.001462	0.000731
3.125430	0.001743	0.001155
3.126035	0.001450	0.000700
3.126641	0.000857	0.000580
3.127246	0.000499	0.000604
3.127852	-9.363465E-5	0.000688
3.128457	-0.000424	0.001058
3.129062	-0.000475	0.001171
3.129668	-0.000236	0.000657
3.130273	-0.000122	0.001733
3.130879	0.000304	4.122621E-5
3.131484	0.000371	0.000221
3.132090	0.000410	0.000308
3.132695	0.000445	-0.000348
3.133301	0.000285	0.000546
3.133906	0.000431	0.000347
3.134512	0.000278	0.000371
3.135117	4.006405E-6	0.000643
3.135723	0.000253	2.095260E-5
3.136328	-0.000265	6.269237E-5
3.136934	-5.357678E-5	-0.000156
3.137539	0.000263	-0.000342
3.138145	4.469018E-5	0.000429
3.138750	0.000804	-0.000576
3.139355	0.000994	0.000751
3.139961	0.001109	7.163661E-5
3.140566	0.001553	0.000190
3.141172	0.001300	-0.000768
3.141777	0.001167	-0.000678
3.142383	0.000907	-0.000227
3.142988	0.000349	8.415854E-5
3.143594	0.000157	-0.000266
3.144199	0.000242	-9.651504E-5
3.144805	0.000122	0.000909
3.145410	0.000220	0.000612
3.146016	0.000119	0.001194
3.146621	-0.000339	0.000271
3.147227	-0.000751	0.001096
3.147832	-0.000785	0.000830
3.148437	-0.001029	0.001217
3.149043	-0.001050	-0.000108
3.149648	-0.000738	6.507750E-5
3.150254	-0.000792	-0.000460
3.150859	-0.000157	-0.000584
3.151465	0.000413	-0.001169
3.152070	0.000539	-0.001522
3.152676	0.000923	-0.001147
3.153281	0.001204	-0.002027
3.153887	0.001042	-0.001886
3.154492	0.001322	-0.002026
3.155098	0.000419	-0.000741
3.155703	0.000588	-0.001138
3.156309	8.537395E-5	0.000200
3.156914	-9.175693E-5	-0.000446
3.157520	-8.612380E-5	-0.000133
3.158125	-0.000301	0.000724
3.158730	-0.000225	2.035632E-5
3.159336	6.284140E-5	-0.000701
3.159941	-5.420268E-5	1.275283E-6
3.160547	0.000217	-0.000576
3.161152	0.000580	-7.668954E-6
3.161758	0.000476	9.250650E-5
3.162363	0.000500	3.585966E-5
3.162969	0.000405	0.001177
3.163574	4.218656E-5	0.000716
3.164180	-0.000503	0.001258
3.164785	-0.000809	0.000906
3.165391	-0.001086	0.002041
3.165996	-0.001258	0.002156
3.166602	-0.001030	0.001648
3.167207	-0.000679	0.001852
3.167813	-0.000872	0.002509
3.168418	-0.000442	0.002252
3.169023	-0.000488	0.001319
3.169629	-0.000278	0.001151
3.170234	-0.000592	1.558606E-5
3.170840	-0.000139	0.001337
3.171445	-4.481412E-5	0.000906
3.172051	-0.000213	0.000429
3.172656	0.000318	0.000906
3.173262	0.000237	0.000540
3.173867	0.000796	-5.119757E-5
3.174473	0.000589	0.000717
3.175078	0.001212	-0.000232
3.175684	0.000737	0.000616
3.176289	0.000395	0.000383
3.176895	0.000320	-0.000292
3.177500	-0.000164	0.000508
3.178105	-0.000520	0.000865
3.178711	-0.000950	-0.000490
3.179316	-0.001039	-0.000339
3.179922	-0.001372	0.000923
3.180527	-0.001362	0.000573
3.181133	-0.000902	0.001256
3.181738	-0.000684	0.001284
3.182344	-0.000151	0.001880
3.182949	0.000200	0.002247
3.183555	0.000540	0.001605
3.184160	0.000518	0.001026
3.184766	0.000604	0.001019
3.185371	0.000366	0.001335
3.185977	0.000346	0.001930
3.186582	0.000257	0.000983
3.187187	0.000349	0.001374
3.187793	0.000354	0.002070
3.188398	0.000272	0.000968
3.189004	0.000934	0.000714
3.189609	0.000714	0.000944
3.190215	0.000637	0.000357
3.190820	0.000716	0.001044
3.191426	0.000756	-0.000114
3.192031	0.000287	-8.339682E-5
3.192637	0.000345	-0.000115
3.193242	0.000362	-7.981913E-5
3.193848	0.000517	8.271787E-8
3.194453	0.000280	-0.000798
3.195059	0.000459	-0.001061
3.195664	-0.000137	-0.001340
3.196270	0.000130	-0.001577
3.196875	0.000349	-0.002429
3.197480	0.000365	-0.002088
3.198086	0.000980	-0.002070
3.198691	0.001256	-0.002559
3.199297	0.000930	-0.002508
3.199902	0.001188	-0.002664
3.200508	0.000902	-0.001810
3.201113	0.000477	-0.001815
3.201719	0.000413	-0.002415
3.202324	0.000267	-0.001899
3.202930	0.000275	-0.001019
3.203535	0.000390	-0.001303
3.204141	0.000654	-0.000538
3.204746	0.000541	-0.000557
3.205352	0.000398	-3.152025E-5
3.205957	-9.864188E-5	0.000619
3.206562	-0.000323	6.030724E-5
3.207168	-0.001140	0.000263
3.207773	-0.000902	0.001061
3.208379	-0.000920	0.001704
3.208984	-0.000206	0.000350
3.209590	-0.000194	0.000869
3.210195	0.000358	0.000866
3.210801	0.000572	0.000576
3.211406	0.000368	0.000581
3.212012	0.000977	0.001052
3.212617	0.000566	0.000691
3.213223	0.000804	0.001974
3.213828	0.000650	0.000916
3.214434	0.000402	0.001951
3.215039	1.902811E-5	0.001364
3.215645	0.000323	0.001282
3.216250	2.090582E-5	0.001219
3.216855	0.000494	-0.000237
3.217461	0.000165	0.000224
3.218066	0.000700	-0.000413
3.218672	0.000196	-0.000160
3.219277	0.000120	0.000141
3.219883	0.000172	-0.000135
3.220488	-0.000165	3.526338E-5
3.221094	-5.795811E-5	0.000122
3.221699	-0.000146	-0.000250
3.222305	-4.756253E-6	0.000775
3.222910	-0.000247	9.012137E-5
3.223516	-0.000109	0.001341
3.224121	-0.000356	0.001647
3.224727	-0.000156	0.000589
3.225332	-0.000154	0.002064
3.225938	3.905704E-5	0.000986
3.226543	0.000232	0.001149
3.227148	0.000155	0.001381
3.227754	0.000121	0.000558
3.228359	-0.000226	0.000331
3.228965	-0.000173	0.001120
3.229570	-0.000356	0.001333
3.230176	-0.000134	0.002410
3.230781	0.000107	0.001778
3.231387	-7.235390E-5	0.003460
3.231992	0.000368	0.003008
3.232598	0.000120	0.002418
3.233203	0.000406	0.001887
3.233809	0.000607	0.000168
3.234414	0.000935	0.000887
3.235020	0.000763	0.001084
3.235625	0.000658	-0.000386
3.236230	0.000632	-0.000924
3.236836	8.599985E-5	-0.000925
3.237441	-2.979242E-5	-0.002116
3.238047	0.000136	-0.001630
3.238652	2.591305E-5	-0.002208
3.239258	0.000405	-0.002504
3.239863	0.000988	-0.001440
3.240469	0.000796	-0.001893
3.241074	0.000871	-0.001817
3.241680	0.001161	-0.001581
3.242285	0.000468	-0.000577
3.242891	0.000159	-0.000613
3.243496	-0.000246	-0.000366
3.244102	-0.000669	-0.000138
3.244707	-0.000663	-0.000460
3.245312	-0.000741	7.581059E-5
3.245918	-5.670630E-5	0.000714
3.246523	-3.041832E-5	-0.000608
3.247129	9.351070E-5	-0.000799
3.247734	0.000504	-0.000727
3.248340	0.000304	-0.000610
3.248945	0.000139	0.000841
3.249551	0.000785	0.000488
3.250156	0.000522	0.001044
3.250762	0.000284	0.000474
3.251367	0.000957	-0.000136
3.251973	0.000517	-0.000158
3.252578	4.469018E-5	-0.000275
3.253184	0.000823	-2.376858E-5
3.253789	5.846007E-5	-0.000804
3.254395	-0.000142	-0.001286
3.255000	0.000206	-0.001517
3.255605	-0.000185	-0.000926
3.256211	0.000123	-0.001295
3.256816	0.000193	-0.001678
3.257422	0.000463	-0.001565
3.258027	8.224443E-5	-0.001335
3.258633	0.000481	-0.000781
3.259238	0.000318	-0.001825
3.259844	0.000483	-0.001959
3.260449	0.000529	-9.532247E-5
3.261055	0.000947	3.824479E-5
3.261660	0.000531	-9.890017E-5
3.262266	0.000875	-0.000473
3.262871	0.000575	0.000638
3.263477	0.000284	0.000643
3.264082	1.402087E-5	0.001934
3.264687	-0.000449	0.001144
3.265293	-0.000249	0.001417
3.265898	-0.000792	0.002442
3.266504	-0.000775	0.002827
3.267109	-0.000417	0.002294
3.267715	-0.000671	0.002489
3.268320	-0.000505	0.003049
3.268926	-0.000141	0.002797
3.269531	-0.000640	0.003376
3.270137	-0.000147	0.003213
3.270742	-0.000375	0.002822
3.271348	-3.918098E-5	0.003519
3.271953	0.000279	0.003287
3.272559	-7.235390E-5	0.003022
3.273164	-1.602253E-5	0.002169
3.273770	7.598538E-5	0.001608
3.274375	-0.000408	0.001152
3.274980	0.000573	0.000502
3.275586	0.000634	-0.000203
3.276191	0.000783	-0.000810
3.276797	0.001368	-0.001002
3.277402	0.000968	-0.001205
3.278008	0.000520	-0.001675
3.278613	0.000858	-0.002530
3.279219	0.000470	-0.002191
3.279824	-0.000107	-0.001420
3.280430	0.000153	-0.001903
3.281035	-0.000326	-0.001630
3.281641	-7.235390E-5	-0.000678
3.282246	-0.000586	-0.000491
3.282852	-0.000321	-0.000771
3.283457	-2.165567E-5	-0.001293
3.284063	-0.000256	-0.001280
3.284668	-1.790024E-5	-0.001275
3.285273	0.000388	-0.001409
3.285879	-2.290747E-5	-0.002043
3.286484	0.000401	-0.002398
3.287090	0.000573	-0.000934
3.287695	0.000288	-9.711132E-5
3.288301	8.850347E-5	-0.000821
3.288906	2.841667E-5	-1.243921E-5
3.289512	-0.000181	0.000973
3.290117	-0.000368	0.002222
3.290723	2.841667E-5	0.002232
3.291328	0.000103	0.002032
3.291934	0.000245	0.002158
3.292539	0.000214	0.001878
3.293145	0.000142	0.002454
3.293750	-0.000219	0.001575
3.294355	-0.000492	0.000607
3.294961	-0.000487	0.000412
3.295566	-0.000858	0.000483
3.296172	-0.000328	-0.000619
3.296777	-0.000405	-0.000506
3.297383	0.000301	-0.001356
3.297988	0.000753	-0.000977
3.298594	0.000970	-0.001168
3.299199	0.001270	-0.001893
3.299805	0.001107	-0.001856
3.300410	0.001224	-0.001311
3.301016	0.001344	-0.001445
3.301621	0.001077	-0.000862
3.302227	0.001310	-0.000783
3.302832	0.001133	-0.001288
3.303437	0.000696	-0.000199
3.304043	0.000737	-0.001364
3.304648	0.000195	-0.001987
3.305254	0.000413	-0.001303
3.305859	-7.259870E-6	-0.001147
3.306465	0.000127	-0.000954
3.307070	4.469018E-5	-0.000634
3.307676	2.215763E-5	-0.000487
3.308281	-0.000226	0.000742
3.308887	-0.000651	-0.000237
3.309492	-0.000746	0.001228
3.310098	-0.000649	0.001501
3.310703	-0.000710	0.001792
3.311309	-0.000663	0.003318
3.311914	-0.000210	0.001617
3.312520	4.030885E-5	0.002724
3.313125	0.000243	0.003330
3.313730	0.000205	0.002662
3.314336	-4.481412E-5	0.002428
3.314941	-0.000628	0.001355
3.315547	-0.000735	0.001760
3.316152	-0.001279	0.002357
3.316758	-0.001145	0.002130
3.317363	-0.000939	0.001435
3.317969	-0.000669	0.001735
3.318574	-0.000420	0.001231
3.319180	-0.000331	0.001735
3.319785	-7.485752E-5	0.000854
3.320391	-0.000201	0.001086
3.320996	-0.000331	0.001315
3.321602	-0.000317	0.001197
3.322207	-0.000170	0.001410
3.322812	-0.000526	0.001378
3.323418	0.000207	0.000887
3.324023	-9.551236E-5	0.000177
3.324629	0.000102	-0.000194
3.325234	0.000246	-0.001076
3.325840	0.000376	-0.001231
3.326445	0.000532	-0.002036
3.327051	0.000546	-0.000633
3.327656	0.000838	-0.000919
3.328262	0.000660	-0.000231
3.328867	0.000140	0.000660
3.329473	6.346730E-5	0.000882
3.330078	-0.000196	0.002374
3.330684	-0.000919	0.002551
3.331289	-0.000701	0.002152
3.331895	-0.000908	0.002884
3.332500	-0.000592	0.003107
3.333105	-0.000128	0.002046
3.333711	0.000200	0.002333
3.334316	0.000318	0.000313
3.334922	0.000664	0.000379
3.335527	0.000467	0.000212
3.336133	0.000562	-0.000837
3.336738	0.000607	-0.001588
3.337344	0.000848	-0.000642
3.337949	0.000906	-0.001359
3.338555	0.000952	-0.000897
3.339160	0.001149	-0.000293
3.339766	0.001247	-0.000882
3.340371	0.001213	-0.000832
3.340977	0.001010	-0.001038
3.341582	0.001429	-0.001331
3.342188	0.001081	-0.001754
3.342793	0.000823	-0.001712
3.343398	0.001094	-0.002057
3.344004	0.000830	-0.002920
3.344609	0.000709	-0.003678
3.345215	0.001382	-0.003614
3.345820	0.001105	-0.003189
3.346426	0.001544	-0.003501
3.347031	0.001667	-0.001575
3.347637	0.001537	-0.001994
3.348242	0.001768	-0.001232
3.348848	0.001271	0.000134
3.349453	0.001068	-0.000404
3.350059	0.000811	4.897788E-5
3.350664	0.000281	0.001990
3.351270	0.000146	0.000880
3.351875	9.639543E-6	0.001054
3.352480	-0.000281	0.000711
3.353086	0.000233	-5.894924E-5
3.353691	0.000687	0.000501
3.354297	0.000515	-0.000175
3.354902	0.001308	-0.001711
3.355508	0.001281	-0.001783
3.356113	0.001216	-0.000800
3.356719	0.001176	-0.000723
3.357324	0.000975	-0.001381
3.357930	0.000930	-0.000289
3.358535	0.000667	9.906560E-5
3.359141	0.000637	-5.298642E-5
3.359746	0.000304	0.000589
3.360352	0.000448	0.000473
3.360957	-2.666290E-5	0.000754
3.361562	0.000164	0.001098
3.362168	-0.000112	-7.624143E-5
3.362773	-0.000158	-0.000776
3.363379	5.258214E-6	-0.000796
3.363984	0.000278	-0.001222
3.364590	-8.487199E-5	-0.001912
3.365195	0.000378	-0.001214
3.365801	-1.164120E-5	-0.001315
3.366406	-0.000228	-0.001683
3.367012	-0.000403	-0.001364
3.367617	-0.000892	-0.000995
3.368223	-0.000912	0.001231
3.368828	-0.001110	0.001299
3.369434	-0.001081	0.001993
3.370039	-0.001156	0.003108
3.370645	-0.000694	0.002969
3.371250	-0.000865	0.003064
3.371855	-0.000519	0.002392
3.372461	-0.000702	0.002789
3.373066	-0.000211	0.003450
3.373672	-0.000209	0.003226
3.374277	0.000258	0.002411
3.374883	0.000209	0.003347
3.375488	0.000212	0.002595
3.376094	0.000288	0.002851
3.376699	0.000112	0.002516
3.377305	0.000142	0.001982
3.377910	-0.000315	0.003170
3.378516	-0.000462	0.002831
3.379121	-0.000950	0.003275
3.379727	-0.000963	0.004402
3.380332	-0.001034	0.004399
3.380937	-0.000785	0.003136
3.381543	-0.001171	0.002925
3.382148	-0.000952	0.001914
3.382754	-0.001064	0.001531
3.383359	-0.000613	0.000508
3.383965	-0.000385	-0.000609
3.384570	-0.000445	-0.000574
3.385176	-0.000181	-0.000916
3.385781	-0.000271	-0.003046
3.386387	-0.000305	-0.002240
3.386992	-0.000472	-0.001658
3.387598	-0.000606	-0.001897
3.388203	-0.000242	-0.000568
3.388809	-0.000778	-0.001145
3.389414	-0.000591	-0.000567
3.390020	-0.000698	-0.000388
3.390625	-0.000930	0.000640
3.391230	-0.000611	8.236969E-5
3.391836	-0.000554	0.000113
3.392441	-0.000348	0.000578
3.393047	-0.000149	-0.000427
3.393652	-0.000332	0.000387
3.394258	-0.000276	0.001058
3.394863	-0.000471	0.000499
3.395469	-0.000397	0.000424
3.396074	-0.000292	0.001175
3.396680	-0.000390	0.001075
3.397285	-0.000467	0.001611
3.397891	-0.000253	0.001760
3.398496	4.406427E-5	0.002828
3.399102	0.000270	0.002261
3.399707	0.000713	0.002091
3.400313	0.001070	0.001474
3.400918	0.000848	0.001166
3.401523	0.000916	0.000980
3.402129	0.000829	-0.000636
3.402734	0.000405	-0.001105
3.403340	0.000431	-0.001949
3.403945	0.000140	-0.001777
3.404551	1.026545E-5	-0.001898
3.405156	0.000109	-0.002386
3.405762	0.000411	-0.002189
3.406367	0.000657	-0.000563
3.406973	0.000711	-0.001496
3.407578	0.001047	-0.001218
3.408184	0.001062	-0.001153
3.408789	0.000841	-0.000572
3.409395	0.000778	-0.000221
3.410000	0.000527	-0.000451
3.410605	0.000652	-0.000333
3.411211	0.000420	0.000248
3.411816	0.000705	0.000367
3.412422	0.000771	-0.000356
3.413027	0.000927	-0.001009
3.413633	0.001322	-0.000111
3.414238	0.001082	-0.000485
3.414844	0.001350	-2.898694E-6
3.415449	0.000993	-0.000106
3.416055	0.000960	-5.477527E-5
3.416660	0.000797	0.001229
3.417266	0.000865	0.000444
3.417871	0.000428	0.000643
3.418477	0.000574	0.000810
3.419082	0.000641	5.434442E-5
3.419687	8.768844E-7	0.000338
3.420293	0.000421	-0.000727
3.420898	-0.000106	-0.000935
3.421504	0.000196	-0.000452
3.422109	0.000128	-0.001512
3.422715	0.000103	-0.002002
3.423320	0.000168	-0.003064
3.423926	2.340943E-5	-0.003434
3.424531	0.000229	-0.002582
3.425137	0.000309	-0.002058
3.425742	0.000740	-0.002625
3.426348	0.000632	-0.002455
3.426953	0.000641	-0.001211
3.427559	0.000656	0.000339
3.428164	0.000436	0.000245
3.428770	0.000337	0.000923
3.429375	2.841667E-5	0.001332
3.429980	-0.000342	0.002252
3.430586	-0.000497	0.002479
3.431191	-0.000394	0.001103
3.431797	-0.000470	0.001913
3.432402	-0.000235	0.002388
3.433008	0.000518	0.002688
3.433613	0.000831	0.000884
3.434219	0.001067	0.000279
3.434824	0.001731	0.000908
3.435430	0.001740	0.001166
3.436035	0.001410	0.000708
3.436641	0.001211	0.001107
3.437246	0.000723	0.001809
3.437852	8.099262E-5	0.002243
3.438457	-0.000494	0.002120
3.439062	-0.000615	0.001094
3.439668	-0.001102	0.001745
3.440273	-0.000969	0.001283
3.440879	-0.000750	0.000233
3.441484	-0.000810	-0.000807
3.442090	-0.000788	-0.001232
3.442695	-0.000233	-0.001717
3.443301	8.412214E-5	-0.001506
3.443906	5.720826E-5	-0.002815
3.444512	0.000371	-0.002850
3.445117	0.000141	-0.002209
3.445723	0.000297	-0.001301
3.446328	-0.000474	-2.257601E-5
3.446934	-0.000582	-0.000775
3.447539	-0.000517	0.001168
3.448145	-0.000841	0.001997
3.448750	-0.000539	0.001178
3.449355	-0.000450	0.001908
3.449961	-0.000693	0.001998
3.450566	-0.000232	0.000682
3.451172	-0.000216	0.002566
3.451777	-0.000186	0.000383
3.452383	8.787756E-5	-8.518567E-5
3.452988	0.000127	0.001420
3.453594	-8.925332E-5	0.000118
3.454199	-8.987922E-5	0.001495
3.454805	-0.000517	0.001281
3.455410	-0.000530	0.001113
3.456016	-0.000641	0.003076
3.456621	-0.000306	0.002221
3.457227	-0.000376	0.002453
3.457832	-0.000326	0.002764
3.458438	-5.983582E-5	0.002453
3.459043	0.000265	0.002830
3.459648	0.000194	0.001851
3.460254	0.000221	0.000525
3.460859	0.000254	0.000699
3.461465	-8.111656E-5	0.000124
3.462070	-0.000131	-0.000907
3.462676	0.000184	-0.001256
3.463281	0.000549	-0.001087
3.463887	0.000382	-0.001108
3.464492	0.000951	-0.001002
3.465098	0.000214	-0.002565
3.465703	6.221549E-5	-0.000915
3.466309	-0.000161	3.407082E-5
3.466914	-0.000859	0.000409
3.467520	-0.001359	0.000245
3.468125	-0.001216	-0.000332
3.468730	-0.001213	0.000683
3.469336	-0.001130	0.001455
3.469941	-0.000774	6.746263E-5
3.470547	-0.000312	-0.000489
3.471152	-8.487199E-5	-0.000494
3.471758	0.000137	-0.000447
3.472363	0.000744	-4.091259E-6
3.472969	0.000785	-0.001407
3.473574	0.001427	-0.000365
3.474180	0.001743	0.000114
3.474785	0.001671	-0.000553
3.475391	0.001655	0.000174
3.475996	0.002083	-0.000101
3.476602	0.001451	0.000111
3.477207	0.001558	0.001314
3.477813	0.001366	0.001287
3.478418	0.000847	0.001016
3.479023	0.000477	0.000452
3.479629	0.000215	0.001377
3.480234	-0.000328	0.001264
3.480840	-0.000268	0.000105
3.481445	-0.000515	0.000732
3.482051	-0.000442	-0.000501
3.482656	-0.000118	3.705223E-5
3.483262	2.653896E-5	-0.000881
3.483867	0.000465	-0.001198
3.484473	0.000805	-0.001130
3.485078	0.001073	-0.000417
3.485684	0.001039	-0.000785
3.486289	0.001242	-0.001280
3.486895	0.000893	-0.000954
3.487500	0.000686	0.000273
3.488105	0.000534	-1.542063E-5
3.488711	0.000947	-0.000489
3.489316	0.000838	-5.954553E-5
3.489922	0.000895	-0.000640
3.490527	0.001145	0.000620
3.491133	0.001064	-0.000257
3.491738	0.000980	-0.001039
3.492344	0.001289	-0.000447
3.492949	0.001160	0.000125
3.493555	0.001132	-0.000670
3.494160	0.001027	-0.000136
3.494766	0.000844	0.000262
3.495371	0.000550	0.000270
3.495977	0.000184	0.000590
3.496582	9.351070E-5	0.000350
3.497187	-0.000127	-0.000282
3.497793	-0.000300	0.000651
3.498398	-0.000303	3.660412E-6
3.499004	0.000212	-0.000664
3.499609	0.000364	-0.000915
3.500215	0.000710	-0.001699
3.500820	0.001346	-0.001925
3.501426	0.001253	-0.002792
3.502031	0.001668	-0.003322
3.502637	0.001702	-0.002904
3.503242	0.001941	-0.002307
3.503848	0.002025	-0.002166
3.504453	0.001766	-0.001855
3.505059	0.001512	-0.000899
3.505664	0.000776	-9.472619E-5
3.506270	0.000423	5.553698E-5
3.506875	-0.000338	0.000184
3.507480	-0.000114	0.001254
3.508086	-0.000806	0.001201
3.508691	-0.000356	0.001372
3.509297	-0.000600	0.000824
3.509902	-0.000342	0.000947
3.510508	-0.000154	0.000761
3.511113	0.000129	0.000527
3.511719	0.000562	0.000431
3.512324	0.000763	0.000323
3.512930	0.000725	0.001236
3.513535	0.000797	0.001581
3.514141	0.000791	0.002153
3.514746	0.000399	0.002034
3.515352	0.000274	0.002652
3.515957	-0.000122	0.002637
3.516563	-0.000219	0.002758
3.517168	-0.000869	0.002847
3.517773	-0.000507	0.002606
3.518379	-0.000962	0.002228
3.518984	-0.000517	0.001788
3.519590	-0.000352	0.000912
3.520195	-0.000157	0.000183
3.520801	0.000259	-0.000198
3.521406	0.000614	-0.000411
3.522012	0.001041	-0.001096
3.522617	0.001430	-0.001328
3.523223	0.001348	-0.001491
3.523828	0.001551	-0.002470
3.524434	0.001202	-0.001259
3.525039	0.000465	-0.001288
3.525645	0.000384	-0.001296
3.526250	5.407874E-5	-0.001300
3.526855	-9.175693E-5	-0.001215
3.527461	-0.000150	-0.001089
3.528066	-0.000226	-0.000857
3.528672	-0.000174	-0.001735
3.529277	5.094922E-5	-0.001294
3.529883	6.659682E-5	-0.000559
3.530488	0.000251	-0.000388
3.531094	0.000142	-0.000148
3.531699	0.000650	-0.000575
3.532305	0.000681	0.001185
3.532910	0.000964	0.001349
3.533516	0.000871	0.000974
3.534121	0.000872	0.001181
3.534727	0.000865	0.001926
3.535332	0.000677	0.003029
3.535938	0.000427	0.003075
3.536543	0.000611	0.001816
3.537148	0.000226	0.001839
3.537754	0.000210	0.002555
3.538359	-0.000139	0.001091
3.538965	-0.000375	0.000897
3.539570	-0.000432	-0.000122
3.540176	-0.000743	-0.000723
3.540781	-0.000556	-0.000124
3.541387	-0.001152	-0.001088
3.541992	-0.000574	-0.001437
3.542598	-0.000584	-0.000388
3.543203	-0.000283	-0.000460
3.543809	-0.000464	-0.001005
3.544414	-0.000340	-0.000806
3.545020	-0.000377	-0.001070
3.545625	-0.000231	-6.670091E-5
3.546230	-0.000310	-0.000738
3.546836	-6.296534E-5	-0.000990
3.547441	-0.000153	0.000434
3.548047	-0.000312	0.001058
3.548652	6.158959E-5	0.000652
3.549258	3.717933E-5	0.000493
3.549863	0.000314	-0.000547
3.550469	0.000618	-0.000522
3.551074	0.000915	0.000212
3.551680	0.001082	-0.000825
3.552285	0.000872	0.000142
3.552891	0.000442	0.000595
3.553496	0.000342	0.001191
3.554102	-0.000444	0.000930
3.554707	-0.000661	0.001215
3.555312	-0.001066	0.002667
3.555918	-0.001544	0.002745
3.556523	-0.001676	0.002143
3.557129	-0.001394	0.002554
3.557734	-0.001491	0.002084
3.558340	-0.001503	0.001287
3.558945	-0.001007	0.000915
3.559551	-0.000989	0.000928
3.560156	-0.000538	0.000558
3.560762	-0.000126	0.000132
3.561367	0.000420	0.000821
3.561973	0.000286	0.000196
3.562578	0.000790	0.001390
3.563184	0.000618	0.002178
3.563789	0.001111	0.000975
3.564395	0.001056	0.002018
3.565000	0.001185	0.002363
3.565605	0.001236	0.002538
3.566211	0.000869	0.002535
3.566816	0.000661	0.001544
3.567422	0.000898	0.001061
3.568027	0.000286	0.001590
3.568633	-1.101529E-5	0.000460
3.569238	4.907151E-5	0.000450
3.569844	-0.000524	0.000218
3.570449	-0.000417	-0.000107
3.571055	-0.000406	-9.890017E-5
3.571660	5.032331E-5	-0.000543
3.572266	0.000235	-0.001928
3.572871	0.000435	-0.000837
3.573477	0.000526	-0.000933
3.574082	0.001115	-0.000989
3.574688	0.000818	-0.000992
3.575293	0.000994	-0.000870
3.575898	0.001178	-0.000630
3.576504	0.000692	-0.001116
3.577109	0.000667	-0.001870
3.577715	0.000793	-0.000916
3.578320	0.000774	-0.000195
3.578926	0.000670	-0.001838
3.579531	0.001274	-0.001770
3.580137	0.000831	-0.001028
3.580742	0.001258	-0.000959
3.581348	0.001304	-0.001158
3.581953	0.001265	-0.000982
3.582559	0.001460	-0.000351
3.583164	0.001436	0.000482
3.583770	0.001527	9.012137E-5
3.584375	0.001579	-0.001140
3.584980	0.001548	-0.000698
3.585586	0.001383	-0.000956
3.586191	0.001414	-0.002088
3.586797	0.001400	-0.002381
3.587402	0.001057	-0.001859
3.588008	0.000636	-0.002680
3.588613	0.000827	-0.002868
3.589219	0.000345	-0.003107
3.589824	0.000708	-0.002504
3.590430	0.000360	-0.001934
3.591035	0.000794	-0.001840
3.591641	0.000870	-0.002528
3.592246	0.000736	-0.000976
3.592852	0.000774	0.000496
3.593457	0.000637	2.035632E-5
3.594063	0.000231	-1.840204E-5
3.594668	0.000826	0.000207
3.595273	0.000600	0.001446
3.595879	8.599985E-5	0.001869
3.596484	0.000299	0.000782
3.597090	5.971188E-5	0.000609
3.597695	-0.000114	0.001553
3.598301	0.000359	0.000646
3.598906	0.000313	0.000707
3.599512	0.000401	0.000161
3.600117	0.000496	0.000875
3.600723	0.000680	0.002138
3.601328	0.000830	0.000101
3.601934	0.001024	0.000699
3.602539	0.000772	0.001171
3.603145	0.000720	0.001616
3.603750	0.000124	0.001785
3.604355	4.406427E-5	0.000770
3.604961	-0.000174	0.001212
3.605566	-0.000804	0.001556
3.606172	-0.000179	0.000383
3.606777	-0.000369	-7.922285E-5
3.607383	-0.000547	-0.000544
3.607988	-0.000529	-0.001350
3.608594	-0.000700	-0.000969
3.609199	-0.000672	-0.001429
3.609805	-0.000380	-0.001444
3.610410	-0.000667	-0.000184
3.611016	-0.001027	-0.000808
3.611621	-0.000728	0.001016
3.612227	-0.001282	0.001853
3.612832	-0.001019	0.001408
3.613437	-0.001459	0.003430
3.614043	-0.001452	0.002832
3.614648	-0.001346	0.003572
3.615254	-0.000936	0.004487
3.615859	-0.000711	0.003301
3.616465	-0.000666	0.003725
3.617070	-0.000869	0.004216
3.617676	-0.000798	0.003179
3.618281	-0.001039	0.003303
3.618887	-0.000738	0.003309
3.619492	-0.000584	0.003021
3.620098	-0.000512	0.003835
3.620703	-4.481412E-5	0.003169
3.621309	0.000266	0.003163
3.621914	0.000820	0.004585
3.622520	0.000169	0.003435
3.623125	0.000577	0.003176
3.623730	-0.000154	0.003092
3.624336	0.000186	0.002849
3.624941	-0.000355	0.002401
3.625547	-0.000382	0.000884
3.626152	-0.000619	-0.000179
3.626758	-0.000400	-0.000773
3.627363	-0.000832	-0.001464
3.627969	-0.000339	-0.002291
3.628574	-0.000658	-0.003344
3.629180	-0.001101	-0.003582
3.629785	-0.000820	-0.001752
3.630391	-0.001191	-0.001179
3.630996	-0.000520	-0.001889
3.631602	-0.000495	-0.001539
3.632207	-0.000285	-0.000724
3.632812	5.783416E-5	-0.000373
3.633418	0.000110	0.000155
3.634023	0.000511	-0.000480
3.634629	0.000602	0.000188
3.635234	0.000480	8.415854E-5
3.635840	0.001059	0.000592
3.636445	0.001088	-0.000376
3.637051	0.000558	-0.000302
3.637656	0.000807	0.000330
3.638262	0.000816	0.000732
3.638867	0.000675	-0.000582
3.639473	0.000451	0.000327
3.640078	0.000718	0.000842
3.640684	0.000104	0.002160
3.641289	-4.669183E-5	0.002003
3.641895	7.974081E-5	0.000788
3.642500	-4.105869E-5	0.001746
3.643105	-4.231050E-5	0.001432
3.643711	-0.000186	0.000112
3.644316	0.000303	0.000111
3.644922	0.000326	0.000508
3.645527	0.000477	-0.000685
3.646133	0.000678	-0.001616
3.646738	0.000932	-0.002918
3.647344	0.001268	-0.002730
3.647949	0.001808	-0.002350
3.648555	0.001587	-0.002210
3.649160	0.001685	-0.003410
3.649766	0.001680	-0.002892
3.650371	0.002260	-0.001347
3.650977	0.001845	-0.001540
3.651582	0.001686	-0.001775
3.652188	0.001549	-0.000526
3.652793	0.001498	0.000318
3.653398	0.001078	-7.027861E-5
3.654004	0.000795	0.000236
3.654609	4.531608E-5	0.000658
3.655215	-9.300874E-5	0.000655
3.655820	-0.000295	0.000480
3.656426	-0.000530	0.000383
3.657031	-0.000449	0.000595
3.657637	-0.000504	0.000467
3.658242	-0.000254	0.000794
3.658848	0.000299	0.000974
3.659453	0.000468	0.001041
3.660059	0.000284	0.000438
3.660664	0.000721	0.000592
3.661270	0.000626	0.001014
3.661875	0.000465	0.001166
3.662480	0.000427	0.000915
3.663086	0.000326	0.001577
3.663691	-9.363465E-5	0.001557
3.664297	2.403534E-5	0.001321
3.664902	0.000331	0.001295
3.665508	5.658236E-5	0.000262
3.666113	-5.858401E-5	-0.000102
3.666719	0.000381	0.000386
3.667324	0.000327	-0.000981
3.667930	0.000353	-0.001891
3.668535	0.000847	-0.000259
3.669141	0.000382	-0.000299
3.669746	0.000654	-0.001423
3.670352	0.000435	0.000598
3.670957	0.000867	0.000961
3.671562	0.000647	0.001423
3.672168	0.000628	0.001680
3.672773	0.000677	0.000516
3.673379	0.000151	0.001130
3.673984	-0.000131	0.002067
3.674590	0.000227	0.000751
3.675195	-0.000353	0.000754
3.675801	-0.000633	0.000407
3.676406	-0.000203	0.000624
3.677012	-0.000912	0.001066
3.677617	-0.000908	-0.000826
3.678223	-0.000456	-0.000340
3.678828	-0.000618	0.001038
3.679434	-0.000447	0.000647
3.680039	-5.920992E-5	0.000655
3.680645	-3.792917E-5	0.001172
3.681250	-2.916652E-5	0.001544
3.681855	5.157512E-5	0.001971
3.682461	-5.920992E-5	0.001813
3.683066	-0.000411	0.000733
3.683672	7.535948E-5	0.000128
3.684277	-0.000107	-3.271282E-5
3.684883	0.000261	-0.001088
3.685488	0.000484	-0.001521
3.686094	0.000994	-0.001449
3.686699	0.000818	-0.001916
3.687305	0.001111	-0.001891
3.687910	0.000908	-0.001382
3.688516	0.001075	-0.001431
3.689121	0.000128	-0.001709
3.689727	7.786310E-5	-0.001052
3.690332	-0.000141	7.223289E-5
3.690937	-0.000405	0.000891
3.691543	-0.000562	0.000599
3.692148	-0.000694	0.000947
3.692754	-0.000625	0.001821
3.693359	-0.000967	0.000906
3.693965	-0.000308	0.000251
3.694570	-0.000520	-0.000126
3.695176	-0.000367	-0.000288
3.695781	2.966848E-5	0.000140
3.696387	0.000183	-0.001124
3.696992	0.000440	-0.001526
3.697598	0.000619	4.718903E-5
3.698203	0.000377	-0.000337
3.698809	0.000590	0.000324
3.699414	0.000418	0.000988
3.700020	0.000217	0.001438
3.700625	-0.000324	0.002698
3.701230	-0.000659	0.001889
3.701836	-0.000669	0.001651
3.702441	-0.000944	0.002627
3.703047	-0.000915	0.002716
3.703652	-0.000827	0.001674
3.704258	-0.000673	0.001902
3.704863	-0.000154	0.001564
3.705469	3.843113E-5	0.003273
3.706074	0.000545	0.001296
3.706680	2.528715E-5	0.001495
3.707285	0.000641	0.000592
3.707891	0.000535	0.000676
3.708496	0.000396	0.000873
3.709102	0.000750	0.000138
3.709707	0.000400	-0.000131
3.710313	0.000508	0.000225
3.710918	0.000899	-0.000754
3.711523	0.000622	-0.000529
3.712129	0.000408	-0.001189
3.712734	0.000843	-0.001430
3.713340	0.000641	-0.000801
3.713945	0.000818	-0.001226
3.714551	0.000730	-0.002064
3.715156	0.000989	-0.002112
3.715762	0.001092	-0.002172
3.716367	0.000749	-0.001962
3.716973	0.000913	-0.000543
3.717578	0.000510	-0.001073
3.718184	3.717933E-5	-0.000410
3.718789	0.000242	0.000536
3.719395	-0.000538	0.002153
3.720000	-0.000735	0.001921
3.720605	-0.000537	0.002286
3.721211	-0.000350	0.002525
3.721816	4.469018E-5	0.002773
3.722422	0.000457	0.002940
3.723027	0.000800	0.002086
3.723633	0.000905	0.001843
3.724238	0.001220	0.001619
3.724844	0.001996	0.001958
3.725449	0.001552	-1.661319E-5
3.726055	0.002015	-0.000966
3.726660	0.002175	-4.687542E-6
3.727266	0.001900	-0.000246
3.727871	0.001814	-0.001805
3.728477	0.001509	-0.001626
3.729082	0.000892	-0.001600
3.729687	0.000535	-0.000895
3.730293	0.000165	-0.001188
3.730898	-0.000222	-0.001881
3.731504	-0.000532	-0.001657
3.732109	-0.000419	-0.001869
3.732715	0.000404	-0.002128
3.733320	0.000353	-0.003821
3.733926	0.000868	-0.003897
3.734531	0.001100	-0.003553
3.735137	0.001353	-0.004145
3.735742	0.001573	-0.004306
3.736348	0.001673	-0.003150
3.736953	0.001424	-0.002120
3.737559	0.000856	-0.001767
3.738164	0.000846	-0.001123
3.738770	0.000524	0.000446
3.739375	0.000145	0.001333
3.739980	-0.000406	0.001615
3.740586	-0.000420	0.002159
3.741191	-0.000783	0.001977
3.741797	-0.000668	0.002527
3.742402	-0.000422	0.002722
3.743008	-0.000284	0.002403
3.743613	-1.915205E-5	0.001569
3.744219	0.000619	0.001655
3.744824	0.000967	0.000558
3.745430	0.001057	0.000498
3.746035	0.001365	-0.000362
3.746641	0.001268	0.000188
3.747246	0.001256	0.000112
3.747852	0.000880	0.000150
3.748457	0.000526	0.001174
3.749062	-0.000210	0.000411
3.749668	-0.000248	0.000506
3.750273	-0.000517	0.000627
3.750879	-0.000770	2.810799E-5
3.751484	-0.000838	1.260465E-5
3.752090	-0.000652	6.269237E-5
3.752695	-0.000589	5.136301E-5
3.753301	-0.000284	0.000143
3.753906	-6.233944E-5	-0.000111
3.754512	-4.231050E-5	0.000115
3.755117	0.000118	0.000499
3.755723	0.000136	-8.697452E-5
3.756328	0.000356	0.000562
3.756934	0.000132	0.000316
3.757539	0.000189	0.001451
3.758145	0.000274	0.001623
3.758750	0.000317	0.001550
3.759355	2.754597E-6	0.001265
3.759961	7.035225E-5	0.001598
3.760566	2.779076E-5	0.001716
3.761172	-6.609486E-5	0.001701
3.761777	0.000176	0.001273
3.762383	3.029438E-5	0.001989
3.762988	-0.000166	0.002086
3.763594	-0.000138	0.001569
3.764199	-0.000286	0.001401
3.764805	6.221549E-5	0.001382
3.765410	-0.000423	0.001936
3.766016	-0.000739	0.001203
3.766621	-0.000682	0.001654
3.767227	-0.001259	0.001719
3.767832	-0.001107	0.001252
3.768438	-0.001098	0.001704
3.769043	-0.001544	0.001166
3.769648	-0.001240	0.000587
3.770254	-0.000760	0.001276
3.770859	-0.000795	0.001074
3.771465	-0.000689	-0.000150
3.772070	0.000103	0.000798
3.772676	0.000286	0.000208
3.773281	0.000487	-0.000717
3.773887	0.000774	-0.000325
3.774492	0.000964	-0.000404
3.775098	0.000828	-0.001238
3.775703	0.000711	-0.001771
3.776309	0.000500	-0.001204
3.776914	-0.000281	-0.000667
3.777520	-0.000209	-0.000588
3.778125	-0.000494	-0.000468
3.778730	-0.000785	8.475482E-5
3.779336	-0.000705	0.000796
3.779941	-0.000659	0.002042
3.780547	-0.001101	0.001497
3.781152	-0.000487	0.001527
3.781758	-0.000544	0.002945
3.782363	-0.000410	0.002265
3.782969	-5.169907E-5	0.001033
3.783574	0.000142	0.001897
3.784180	0.000608	0.001041
3.784785	0.000884	0.000924
3.785391	0.001735	0.001045
3.785996	0.001753	-6.491207E-5
3.786602	0.001820	0.000323
3.787207	0.001948	0.001205
3.787812	0.001675	0.000204
3.788418	0.001532	0.000601
3.789023	0.001037	0.000306
3.789629	0.001030	-0.000578
3.790234	0.000355	0.000481
3.790840	0.000182	-0.000773
3.791445	0.000209	-0.000562
3.792051	0.000229	-0.001003
3.792656	0.000287	-0.001287
3.793262	0.000899	-0.002139
3.793867	0.000716	-0.002089
3.794473	0.000689	-0.002353
3.795078	0.000888	-0.003272
3.795684	0.001134	-0.002679
3.796289	0.000785	-0.002508
3.796895	0.000977	-0.002789
3.797500	0.000796	-0.001760
3.798105	0.000586	-0.001269
3.798711	0.001023	-0.001529
3.799316	0.000654	-0.000328
3.799922	0.000684	-0.000526
3.800527	0.000788	-0.000473
3.801133	0.000952	0.000224
3.801738	0.000980	0.000541
3.802344	0.001246	-0.000824
3.802949	0.000974	-9.770760E-5
3.803555	0.000971	-0.000169
3.804160	0.000607	0.000120
3.804766	0.001229	0.000716
3.805371	0.001148	0.000357
3.805977	0.001128	0.001001
3.806582	0.001026	0.000741
3.807187	0.000890	0.001248
3.807793	0.000723	0.000550
3.808398	3.717933E-5	0.000295
3.809004	-0.000143	0.000215
3.809609	-0.000672	0.000506
3.810215	-0.000352	0.000168
3.810820	-0.000444	-0.000440
3.811426	-0.000327	-0.001609
3.812031	-0.000618	-0.001818
3.812637	0.000213	-0.002005
3.813242	0.000194	-0.001857
3.813848	0.000186	-0.001939
3.814453	0.000556	-0.002405
3.815059	0.000562	-0.001243
3.815664	0.000353	-0.000753
3.816270	7.473358E-5	-0.001093
3.816875	0.000326	-0.000536
3.817480	-0.000280	0.000413
3.818086	-0.000292	0.000586
3.818691	-0.000518	0.001086
3.819297	-0.000207	0.000816
3.819902	-0.000309	0.001631
3.820508	-0.000147	0.002754
3.821113	6.659682E-5	0.001489
3.821719	0.000201	0.000982
3.822324	0.000711	0.001268
3.822930	0.001162	0.002344
3.823535	0.000944	0.001552
3.824141	0.001256	0.000769
3.824746	0.001237	0.000997
3.825352	0.000690	0.002089
3.825957	0.000386	0.002959
3.826563	-0.000547	0.002018
3.827168	-0.000905	0.000838
3.827773	-0.001896	0.002352
3.828379	-0.001969	0.003713
3.828984	-0.002480	0.002457
3.829590	-0.002465	0.002164
3.830195	-0.002413	0.001150
3.830801	-0.002294	0.001223
3.831406	-0.001747	0.001878
3.832012	-0.001210	5.315185E-5
3.832617	-0.000161	-0.001099
3.833223	0.000302	0.000231
3.833828	0.001179	-0.000653
3.834434	0.001403	-0.001142
3.835039	0.001333	-0.001230
3.835645	0.001303	-0.000835
3.836250	0.001086	0.000233
3.836855	0.000582	-0.000284
3.837461	0.000304	0.000126
3.838066	-0.000331	0.001556
3.838672	-0.000706	0.001903
3.839277	-0.000944	0.002307
3.839883	-0.001244	0.002145
3.840488	-0.001273	0.001958
3.841094	-0.000963	0.002797
3.841699	-0.000741	0.001396
3.842305	-0.000581	0.000786
3.842910	-0.000465	0.001353
3.843516	-0.000541	0.001499
3.844121	-0.000380	0.001354
3.844727	-0.000358	0.000548
3.845332	0.000145	0.000840
3.845937	-9.113103E-5	0.001054
3.846543	0.000443	0.000484
3.847148	0.000534	0.000417
3.847754	0.000445	0.001134
3.848359	0.000438	8.415854E-5
3.848965	0.000489	0.000174
3.849570	0.000341	-7.981913E-5
3.850176	0.000716	-0.001225
3.850781	0.000865	-0.000481
3.851387	0.000913	-0.000876
3.851992	0.001291	-0.001339
3.852598	0.001037	-0.001492
3.853203	0.001442	-0.000770
3.853809	0.001302	-0.001369
3.854414	0.001052	-0.000999
3.855020	0.000954	0.000505
3.855625	0.000753	0.000101
3.856230	0.000446	-7.922285E-5
3.856836	0.000774	0.000861
3.857441	0.000309	0.000403
3.858047	0.000703	0.000547
3.858652	0.000888	-0.000493
3.859258	0.001092	-0.001473
3.859863	0.001306	-0.001463
3.860469	0.000964	-0.001630
3.861074	0.001171	-0.002672
3.861680	0.001121	-0.003374
3.862285	0.000952	-0.002441
3.862891	0.000804	-0.002681
3.863496	0.000591	-0.002291
3.864102	0.000696	-0.002256
3.864707	0.000457	-0.002217
3.865312	0.000361	-0.000956
3.865918	0.000229	-0.000465
3.866523	0.000195	-0.000420
3.867129	-8.049066E-5	0.000226
3.867734	-0.000482	0.000260
3.868340	-0.000663	-0.000161
3.868945	-0.000875	0.000626
3.869551	-0.000737	0.000901
3.870156	-4.544002E-5	0.001378
3.870762	6.510022E-6	0.000466
3.871367	0.000690	0.000639
3.871973	0.001428	0.001268
3.872578	0.001340	0.000529
3.873184	0.001765	0.000608
3.873789	0.001919	0.000617
3.874395	0.001763	0.001258

